Data Counter, Data Time, Angle, Counter, Left Encoder Counts, Right Encoder Counts, Bumper Byte, Desired Heading
0 0.024448 60.000000 1.125875 12428 -10892 00000000 60.000000
1 0.055664 60.000000 2.249056 12428 -10892 00000000 60.000000
2 0.086904 60.000000 3.373961 12428 -10892 00000000 60.000000
3 0.118284 60.000000 4.501142 12428 -10892 00000000 60.000000
4 0.149546 60.000000 5.625232 12428 -10892 00000000 60.000000
5 0.180844 60.000000 6.750026 12428 -10892 00000000 60.000000
6 0.212054 60.000000 7.874665 12428 -10892 00000000 60.000000
7 0.243340 60.000000 9.000009 12428 -10892 00000000 60.000000
8 0.274520 60.000000 10.124785 12428 -10892 00000000 60.000000
9 0.305741 60.000000 11.249468 12428 -10892 00000000 60.000000
10 0.336984 60.000000 12.376923 12428 -10892 00000000 60.000000
11 0.368301 60.000000 13.498429 12428 -10892 00000000 60.000000
12 0.399435 60.000000 14.624820 12428 -10892 00000000 60.000000
13 0.430729 60.000000 15.748824 12428 -10892 00000000 60.000000
14 0.461939 60.000000 16.873575 12428 -10892 00000000 60.000000
15 0.493238 60.000000 18.001699 12428 -10892 00000000 60.000000
16 0.524403 60.000000 19.127137 12428 -10892 00000000 60.000000
17 0.555838 60.000000 20.251493 12428 -10892 00000000 60.000000
18 0.587029 60.000000 21.375721 12428 -10892 00000000 60.000000
19 0.618335 60.000000 22.498876 12428 -10892 00000000 60.000000
20 0.649569 60.000000 23.624391 12428 -10892 00000000 60.000000
21 0.680817 60.000000 24.748618 12428 -10892 00000000 60.000000
22 0.712061 60.000000 25.877146 12428 -10892 00000000 60.000000
23 0.743206 60.000000 26.997528 12428 -10892 00000000 60.000000
24 0.774438 60.000000 28.127069 12428 -10892 00000000 60.000000
25 0.805740 60.000000 29.251313 12428 -10892 00000000 60.000000
26 0.836965 60.000000 30.375180 12428 -10892 00000000 60.000000
27 0.868183 60.000000 31.499846 12428 -10892 00000000 60.000000
28 0.899413 60.000000 32.626579 12428 -10892 00000000 60.000000
29 0.930677 60.000000 33.750850 12428 -10892 00000000 60.000000
30 0.961952 60.000000 34.875206 12428 -10892 00000000 60.000000
31 0.993350 60.000000 35.999425 12428 -10892 00000000 60.000000
32 1.024569 60.000000 37.123833 12428 -10892 00000000 60.000000
33 1.055872 60.000000 38.251236 12428 -10892 00000000 60.000000
34 1.087040 60.000000 39.375300 12428 -10892 00000000 60.000000
35 1.118312 60.000000 40.499064 12428 -10892 00000000 60.000000
36 1.149572 60.000000 41.625566 12428 -10892 00000000 60.000000
37 1.180756 60.000000 42.750798 12428 -10892 00000000 60.000000
38 1.212062 60.000000 43.874099 12428 -10892 00000000 60.000000
39 1.243218 60.000000 45.001245 12428 -10892 00000000 60.000000
40 1.274441 60.000000 46.125086 12428 -10892 00000000 60.000000
41 1.305653 60.000000 47.249614 12428 -10892 00000000 60.000000
42 1.336913 60.000000 48.373747 12428 -10892 00000000 60.000000
43 1.368204 60.000000 49.502034 12428 -10892 00000000 60.000000
44 1.399421 60.000000 50.624047 12428 -10892 00000000 60.000000
45 1.430676 60.000000 51.749682 12428 -10892 00000000 60.000000
46 1.462049 60.000000 52.875747 12428 -10892 00000000 60.000000
47 1.493256 60.000000 53.997374 12428 -10892 00000000 60.000000
48 1.524535 60.000000 55.124837 12428 -10892 00000000 60.000000
49 1.555726 60.000000 56.251030 12428 -10892 00000000 60.000000
50 1.586978 60.000000 57.373730 12428 -10892 00000000 60.000000
51 1.618222 60.000000 58.499322 12428 -10892 00000000 60.000000
52 1.649454 60.000000 59.626511 12428 -10892 00000000 60.000000
53 1.680640 60.000000 60.748755 12428 -10892 00000000 60.000000
54 1.711927 60.000000 61.876734 12428 -10892 00000000 60.000000
55 1.743202 60.000000 62.997365 12428 -10892 00000000 60.000000
56 1.774356 60.000000 64.126648 12428 -10892 00000000 60.000000
57 1.805611 60.000000 65.251579 12428 -10892 00000000 60.000000
58 1.836938 60.000000 66.374648 12428 -10892 00000000 60.000000
59 1.868187 60.000000 67.499442 12428 -10892 00000000 60.000000
60 1.899506 60.000000 68.624923 12428 -10892 00000000 60.000000
61 1.930812 60.000000 69.751373 12428 -10892 00000000 60.000000
62 1.962031 60.000000 70.876296 12428 -10892 00000000 60.000000
63 1.993251 60.000000 72.002069 12428 -10892 00000000 60.000000
64 2.024495 60.000000 73.124777 12428 -10892 00000000 60.000000
65 2.055694 60.000000 74.250970 12428 -10892 00000000 60.000000
66 2.086891 60.000000 75.375129 12428 -10892 00000000 60.000000
67 2.118137 60.000000 76.499270 12428 -10892 00000000 60.000000
68 2.149414 60.000000 77.625996 12428 -10892 00000000 60.000000
69 2.180675 60.000000 78.750867 12428 -10892 00000000 60.000000
70 2.211988 60.000000 79.875197 12428 -10892 00000000 60.000000
71 2.243143 60.000000 81.000772 12428 -10892 00000000 60.000000
72 2.274415 60.000000 82.124193 12428 -10892 00000000 60.000000
73 2.305830 60.000000 83.249331 12428 -10892 00000000 60.000000
74 2.337041 60.000000 84.377189 12428 -10892 00000000 60.000000
75 2.368262 60.000000 85.499442 12428 -10892 00000000 60.000000
76 2.399526 60.000000 86.625798 12428 -10892 00000000 60.000000
77 2.430759 60.000000 87.748790 12428 -10892 00000000 60.000000
78 2.461950 60.000000 88.875549 12428 -10892 00000000 60.000000
79 2.493261 60.000000 90.000618 12428 -10892 00000000 60.000000
80 2.524458 60.000000 91.126287 12428 -10892 00000000 60.000000
81 2.555656 60.000000 92.249279 12428 -10892 00000000 60.000000
82 2.586915 60.000000 93.373421 12428 -10892 00000000 60.000000
83 2.618201 60.000000 94.501674 12428 -10892 00000000 60.000000
84 2.649422 60.000000 95.624142 12428 -10892 00000000 60.000000
85 2.680714 60.000000 96.752051 12428 -10892 00000000 60.000000
86 2.712055 60.000000 97.875850 12428 -10892 00000000 60.000000
87 2.743325 60.000000 98.997459 12428 -10892 00000000 60.000000
88 2.774592 60.000000 100.124682 12428 -10892 00000000 60.000000
89 2.805755 60.000000 101.248773 12428 -10892 00000000 60.000000
90 2.836987 60.000000 102.376974 12428 -10892 00000000 60.000000
91 2.868193 60.000000 103.501133 12428 -10892 00000000 60.000000
92 2.899444 60.000000 104.624391 12428 -10892 00000000 60.000000
93 2.930714 60.000000 105.748678 12428 -10892 00000000 60.000000
94 2.961930 60.000000 106.877034 12428 -10892 00000000 60.000000
95 2.993189 60.000000 107.997296 12428 -10892 00000000 60.000000
96 3.024385 60.000000 109.126897 12428 -10892 00000000 60.000000
97 3.055567 60.000000 110.251511 12428 -10892 00000000 60.000000
98 3.086880 60.000000 111.375300 12428 -10892 00000000 60.000000
99 3.118107 60.000000 112.499880 12428 -10892 00000000 60.000000
100 3.149334 60.000000 113.626905 12428 -10892 00000000 60.000000
101 3.180804 60.000000 114.748876 12428 -10892 00000000 60.000000
102 3.212010 60.000000 115.876957 12428 -10892 00000000 60.000000
103 3.243268 60.000000 117.002275 12428 -10892 00000000 60.000000
104 3.274540 60.000000 118.127232 12428 -10892 00000000 60.000000
105 3.305751 60.000000 119.251159 12428 -10892 00000000 60.000000
106 3.336944 60.000000 120.375481 12428 -10892 00000000 60.000000
107 3.368182 60.000000 121.499614 12428 -10892 00000000 60.000000
108 3.399414 60.000000 122.623507 12428 -10892 00000000 60.000000
109 3.430664 60.000000 123.750901 12428 -10892 00000000 60.000000
110 3.461891 60.000000 124.875386 12428 -10892 00000000 60.000000
111 3.493210 60.000000 125.999785 12428 -10892 00000000 60.000000
112 3.524558 60.000000 127.124854 12428 -10892 00000000 60.000000
113 3.555758 60.000000 128.251880 12428 -10892 00000000 60.000000
114 3.587024 60.000000 129.375094 12428 -10892 00000000 60.000000
115 3.618268 60.000000 130.499382 12428 -10892 00000000 60.000000
116 3.649538 60.000000 131.623386 12428 -10892 00000000 60.000000
117 3.680733 60.000000 132.750712 12428 -10892 00000000 60.000000
118 3.712005 60.000000 133.875275 12428 -10892 00000000 60.000000
119 3.743246 60.000000 135.000386 12428 -10892 00000000 60.000000
120 3.774457 60.000000 136.125043 12428 -10892 00000000 60.000000
121 3.805668 60.000000 137.249416 12428 -10892 00000000 60.000000
122 3.836942 60.000000 138.374451 12428 -10892 00000000 60.000000
123 3.868218 60.000000 139.498378 12428 -10892 00000000 60.000000
124 3.899382 60.000000 140.625438 12428 -10892 00000000 60.000000
125 3.930680 60.000000 141.752017 12428 -10892 00000000 60.000000
126 3.962783 60.000000 142.874785 12428 -10892 00000000 60.000000
127 3.993294 60.000000 143.999425 12428 -10892 00000000 60.000000
128 4.024575 60.000000 145.125421 12428 -10892 00000000 60.000000
129 4.055730 60.000000 146.249640 12428 -10892 00000000 60.000000
130 4.086963 60.000000 147.374159 12428 -10892 00000000 60.000000
131 4.118256 60.000000 148.501674 12428 -10892 00000000 60.000000
132 4.149473 60.000000 149.625978 12428 -10892 00000000 60.000000
133 4.180716 60.000000 150.749528 12428 -10892 00000000 60.000000
134 4.211885 60.000000 151.874236 12428 -10892 00000000 60.000000
135 4.243167 60.000000 152.999082 12428 -10892 00000000 60.000000
136 4.274365 60.000000 154.123944 12428 -10892 00000000 60.000000
137 4.305629 60.000000 155.252051 12428 -10892 00000000 60.000000
138 4.336874 60.000000 156.376871 12428 -10892 00000000 60.000000
139 4.368190 60.000000 157.499451 12428 -10892 00000000 60.000000
140 4.399570 60.000000 158.624210 12428 -10892 00000000 60.000000
141 4.430763 60.000000 159.751433 12428 -10892 00000000 60.000000
142 4.461959 60.000000 160.875077 12428 -10892 00000000 60.000000
143 4.493276 60.000000 162.000627 12428 -10892 00000000 60.000000
144 4.524468 60.000000 163.125627 12428 -10892 00000000 60.000000
145 4.555739 60.000000 164.249476 12428 -10892 00000000 60.000000
146 4.586972 60.000000 165.374142 12428 -10892 00000000 60.000000
147 4.618274 60.000000 166.501905 12428 -10892 00000000 60.000000
148 4.649418 60.000000 167.625747 12428 -10892 00000000 60.000000
149 4.680663 60.000000 168.749785 12428 -10892 00000000 60.000000
150 4.711829 60.000000 169.873472 12428 -10892 00000000 60.000000
151 4.743136 60.000000 171.001614 12428 -10892 00000000 60.000000
152 4.774399 60.000000 172.126348 12428 -10892 00000000 60.000000
153 4.805654 60.000000 173.251099 12428 -10892 00000000 60.000000
154 4.837002 60.000000 174.373361 12428 -10892 00000000 60.000000
155 4.868309 60.000000 175.501760 12428 -10892 00000000 60.000000
156 4.899531 60.000000 176.626991 12428 -10892 00000000 60.000000
157 4.930762 60.000000 177.750730 12428 -10892 00000000 60.000000
158 4.961995 60.000000 178.873979 12428 -10892 00000000 60.000000
159 4.993200 60.000000 180.000472 12428 -10892 00000000 60.000000
160 5.024468 60.000000 181.124064 12428 -10892 00000000 60.000000
161 5.055659 60.000000 182.249476 12428 -10892 00000000 60.000000
162 5.086924 60.000000 183.374004 12428 -10892 00000000 60.000000
163 5.118134 60.000000 184.498369 12428 -10892 00000000 60.000000
164 5.149380 60.000000 185.625206 12428 -10892 00000000 60.000000
165 5.180598 60.000000 186.749459 12428 -10892 00000000 60.000000
166 5.211874 60.000000 187.873489 12428 -10892 00000000 60.000000
167 5.243098 60.000000 188.998781 12428 -10892 00000000 60.000000
168 5.274535 60.000000 190.126717 12428 -10892 00000000 60.000000
169 5.305733 60.000000 191.250944 12428 -10892 00000000 60.000000
170 5.336959 60.000000 192.373996 12428 -10892 00000000 60.000000
171 5.368251 60.000000 193.502060 12428 -10892 00000000 60.000000
172 5.399460 60.000000 194.624082 12428 -10892 00000000 60.000000
173 5.430688 60.000000 195.750283 12428 -10892 00000000 60.000000
174 5.463666 60.000000 196.875077 12428 -10892 00000000 60.000000
175 5.493164 60.000000 198.000189 12428 -10892 00000000 60.000000
176 5.524339 60.000000 199.123481 12428 -10892 00000000 60.000000
177 5.555599 60.000000 200.251476 12428 -10892 00000000 60.000000
178 5.586867 60.000000 201.374056 12428 -10892 00000000 60.000000
179 5.618090 60.000000 202.500232 12428 -10892 00000000 60.000000
180 5.649420 60.000000 203.625944 12428 -10892 00000000 60.000000
181 5.680725 60.000000 204.749614 12428 -10892 00000000 60.000000
182 5.711960 60.000000 205.874391 12428 -10892 00000000 60.000000
183 5.743224 60.000000 206.997442 12428 -10892 00000000 60.000000
184 5.774529 60.000000 208.127086 12428 -10892 00000000 60.000000
185 5.805719 60.000000 209.251227 12428 -10892 00000000 60.000000
186 5.836954 60.000000 210.377060 12428 -10892 00000000 60.000000
187 5.868163 60.000000 211.500197 12428 -10892 00000000 60.000000
188 5.899436 60.000000 212.623378 12428 -10892 00000000 60.000000
189 5.930666 60.000000 213.751554 12428 -10892 00000000 60.000000
190 5.961916 60.000000 214.875584 12428 -10892 00000000 60.000000
191 5.993106 60.000000 216.001133 12428 -10892 00000000 60.000000
192 6.024435 60.000000 217.124991 12428 -10892 00000000 60.000000
193 6.055675 60.000000 218.248867 12428 -10892 00000000 60.000000
194 6.086905 60.000000 219.373730 12428 -10892 00000000 60.000000
195 6.118255 60.000000 220.501622 12428 -10892 00000000 60.000000
196 6.149519 60.000000 221.626828 12428 -10892 00000000 60.000000
197 6.180797 60.000000 222.751004 12428 -10892 00000000 60.000000
198 6.212000 60.000000 223.875163 12428 -10892 00000000 60.000000
199 6.243231 60.000000 225.000584 12428 -10892 00000000 60.000000
200 6.274480 60.000000 226.125524 12428 -10892 00000000 60.000000
201 6.305645 60.000000 227.249434 12428 -10892 00000000 60.000000
202 6.336901 60.000000 228.373558 12428 -10892 00000000 60.000000
203 6.368204 60.000000 229.501828 12428 -10892 00000000 60.000000
204 6.399346 60.000000 230.624803 12428 -10892 00000000 60.000000
205 6.430857 60.000000 231.750867 12428 -10892 00000000 60.000000
206 6.462085 60.000000 232.874837 12428 -10892 00000000 60.000000
207 6.493376 60.000000 234.000446 12428 -10892 00000000 60.000000
208 6.524539 60.000000 235.124983 12428 -10892 00000000 60.000000
209 6.555825 60.000000 236.249270 12428 -10892 00000000 60.000000
210 6.587072 60.000000 237.373429 12428 -10892 00000000 60.000000
211 6.618311 60.000000 238.501588 12428 -10892 00000000 60.000000
212 6.649462 60.000000 239.624888 12428 -10892 00000000 60.000000
213 6.680685 60.000000 240.749090 12428 -10892 00000000 60.000000
214 6.711955 60.000000 241.877206 12428 -10892 00000000 60.000000
215 6.743192 60.000000 243.000446 12428 -10892 00000000 60.000000
216 6.774397 60.000000 244.123704 12428 -10892 00000000 60.000000
217 6.805614 60.000000 245.251485 12428 -10892 00000000 60.000000
218 6.836855 60.000000 246.376210 12428 -10892 00000000 60.000000
219 6.868168 60.000000 247.500137 12428 -10892 00000000 60.000000
220 6.899533 60.000000 248.625644 12428 -10892 00000000 60.000000
221 6.930793 60.000000 249.750318 12428 -10892 00000000 60.000000
222 6.964345 60.000000 250.876322 12428 -10892 00000000 60.000000
223 6.993282 60.000000 251.997365 12428 -10892 00000000 60.000000
224 7.024507 60.000000 253.123721 12428 -10892 00000000 60.000000
225 7.055794 60.000000 254.251571 12428 -10892 00000000 60.000000
226 7.086946 60.000000 255.375661 12428 -10892 00000000 60.000000
227 7.118169 60.000000 256.500051 12428 -10892 00000000 60.000000
228 7.149395 60.000000 257.626974 12428 -10892 00000000 60.000000
229 7.180638 60.000000 258.750910 12428 -10892 00000000 60.000000
230 7.211906 60.000000 259.876004 12428 -10892 00000000 60.000000
231 7.243128 60.000000 261.000875 12428 -10892 00000000 60.000000
232 7.274427 60.000000 262.126099 12428 -10892 00000000 60.000000
233 7.305658 60.000000 263.250343 12428 -10892 00000000 60.000000
234 7.337022 60.000000 264.373369 12428 -10892 00000000 60.000000
235 7.368231 60.000000 265.498378 12428 -10892 00000000 60.000000
236 7.399548 60.000000 266.626116 12428 -10892 00000000 60.000000
237 7.430751 60.000000 267.751382 12428 -10892 00000000 60.000000
238 7.461950 60.000000 268.875953 12428 -10892 00000000 60.000000
239 7.493267 60.000000 270.001828 12428 -10892 00000000 60.000000
240 7.524462 60.000000 271.126030 12428 -10892 00000000 60.000000
241 7.555673 60.000000 272.249803 12428 -10892 00000000 60.000000
242 7.586941 60.000000 273.374545 12428 -10892 00000000 60.000000
243 7.618146 60.000000 274.498927 12428 -10892 00000000 60.000000
244 7.649356 60.000000 275.625558 12428 -10892 00000000 60.000000
245 7.680628 60.000000 276.750129 12428 -10892 00000000 60.000000
246 7.711852 60.000000 277.874279 12428 -10892 00000000 60.000000
247 7.743152 60.000000 278.999665 12428 -10892 00000000 60.000000
248 7.774551 60.000000 280.126785 12428 -10892 00000000 60.000000
249 7.805722 60.000000 281.252000 12428 -10892 00000000 60.000000
250 7.836990 60.000000 282.375996 12428 -10892 00000000 60.000000
251 7.868239 60.000000 283.499537 12428 -10892 00000000 60.000000
252 7.899406 60.000000 284.626742 12428 -10892 00000000 60.000000
253 7.930712 60.000000 285.751210 12428 -10892 00000000 60.000000
254 7.961969 60.000000 286.875910 12428 -10892 00000000 60.000000
255 7.993113 60.000000 288.000893 12428 -10892 00000000 60.000000
256 8.024338 60.000000 289.124923 12428 -10892 00000000 60.000000
257 8.055632 60.000000 290.249725 12428 -10892 00000000 60.000000
258 8.086897 60.000000 291.375532 12428 -10892 00000000 60.000000
259 8.118149 60.000000 292.500755 12428 -10892 00000000 60.000000
260 8.149426 60.000000 293.626262 12428 -10892 00000000 60.000000
261 8.180656 60.000000 294.751305 12428 -10892 00000000 60.000000
262 8.211922 60.000000 295.875000 12428 -10892 00000000 60.000000
263 8.243272 60.000000 297.001519 12428 -10892 00000000 60.000000
264 8.274468 60.000000 298.126039 12428 -10892 00000000 60.000000
265 8.305724 60.000000 299.249073 12428 -10892 00000000 60.000000
266 8.336900 60.000000 -59.625378 12428 -10892 00000000 60.000000
267 8.368140 60.000000 -58.500060 12428 -10892 00000000 60.000000
268 8.399381 60.000000 -57.373232 12428 -10892 00000000 60.000000
269 8.430598 60.000000 -56.251202 12428 -10892 00000000 60.000000
270 8.465307 60.000000 -55.123627 12428 -10892 00000000 60.000000
271 8.493108 60.000000 -53.999210 12428 -10892 00000000 60.000000
272 8.524356 60.000000 -52.874485 12428 -10892 00000000 60.000000
273 8.555623 60.000000 -51.750043 12428 -10892 00000000 60.000000
274 8.586869 60.000000 -50.625652 12428 -10892 00000000 60.000000
275 8.618111 60.000000 -49.498026 12428 -10892 00000000 60.000000
276 8.649395 60.000000 -48.375498 12428 -10892 00000000 60.000000
277 8.680736 60.000000 -47.248850 12428 -10892 00000000 60.000000
278 8.711951 60.000000 -46.125326 12428 -10892 00000000 60.000000
279 8.743262 60.000000 -44.999125 12428 -10892 00000000 60.000000
280 8.774398 60.000000 -43.874923 12428 -10892 00000000 60.000000
281 8.805709 60.000000 -42.751476 12428 -10892 00000000 60.000000
282 8.836929 60.000000 -41.626348 12428 -10892 00000000 60.000000
283 8.868119 60.000000 -40.498644 12428 -10892 00000000 60.000000
284 8.899424 60.000000 -39.374511 12428 -10892 00000000 60.000000
285 8.930586 60.000000 -38.250798 12428 -10892 00000000 60.000000
286 8.961774 60.000000 -37.124674 12428 -10892 00000000 60.000000
287 8.993040 60.000000 -36.000506 12428 -10892 00000000 60.000000
288 9.024318 60.000000 -34.876176 12428 -10892 00000000 60.000000
289 9.055594 60.000000 -33.748901 12428 -10892 00000000 60.000000
290 9.087036 60.000000 -32.624185 12428 -10892 00000000 60.000000
291 9.118187 60.000000 -31.500858 12428 -10892 00000000 60.000000
292 9.149431 60.000000 -30.374991 12428 -10892 00000000 60.000000
293 9.180687 60.000000 -29.250858 12428 -10892 00000000 60.000000
294 9.211940 60.000000 -28.122957 12428 -10892 00000000 60.000000
295 9.243187 60.000000 -26.998970 12428 -10892 00000000 60.000000
296 9.274450 60.000000 -25.876099 12428 -10892 00000000 60.000000
297 9.305593 60.000000 -24.750343 12428 -10892 00000000 60.000000
298 9.336879 60.000000 -23.623807 12428 -10892 00000000 60.000000
299 9.368172 60.000000 -22.499047 12428 -10892 00000000 60.000000
300 9.399400 60.000000 -21.373541 12428 -10892 00000000 60.000000
301 9.430644 60.000000 -20.248867 12428 -10892 00000000 60.000000
302 9.461882 60.000000 -19.124391 12428 -10892 00000000 60.000000
303 9.493242 60.000000 -17.998524 12428 -10892 00000000 60.000000
304 9.524490 60.000000 -16.875489 12428 -10892 00000000 60.000000
305 9.555732 60.000000 -15.751287 12428 -10892 00000000 60.000000
306 9.586971 60.000000 -14.623961 12428 -10892 00000000 60.000000
307 9.618169 60.000000 -13.499991 12428 -10892 00000000 60.000000
308 9.649425 60.000000 -12.373335 12428 -10892 00000000 60.000000
309 9.680649 60.000000 -11.248919 12428 -10892 00000000 60.000000
310 9.711921 60.000000 -10.124133 12428 -10892 00000000 60.000000
311 9.743109 60.000000 -8.999004 12428 -10892 00000000 60.000000
312 9.774376 60.000000 -7.874219 12428 -10892 00000000 60.000000
313 9.805672 60.000000 -6.751493 12428 -10892 00000000 60.000000
314 9.836804 60.000000 -5.625446 12428 -10892 00000000 60.000000
315 9.868078 60.000000 -4.501408 12428 -10892 00000000 60.000000
316 9.899259 60.000000 -3.374305 12428 -10892 00000000 60.000000
317 9.930725 60.000000 -2.250266 12428 -10892 00000000 60.000000
318 9.962014 60.000000 -1.125669 12428 -10892 00000000 60.000000
319 9.993255 60.000000 0.000970 12428 -10892 00000000 60.000000
320 10.024476 60.000000 1.126253 12428 -10892 00000000 60.000000
321 10.055736 60.000000 2.250000 12428 -10892 00000000 60.000000
322 10.086892 60.000000 3.374245 12428 -10892 00000000 60.000000
323 10.118150 60.000000 4.498695 12428 -10892 00000000 60.000000
324 10.149369 60.000000 5.625644 12428 -10892 00000000 60.000000
325 10.180651 60.000000 6.749940 12428 -10892 00000000 60.000000
326 10.211842 60.000000 7.875154 12428 -10892 00000000 60.000000
327 10.243115 60.000000 9.000180 12428 -10892 00000000 60.000000
328 10.274412 60.000000 10.123695 12428 -10892 00000000 60.000000
329 10.305799 60.000000 11.251957 12428 -10892 00000000 60.000000
330 10.336960 60.000000 12.375026 12428 -10892 00000000 60.000000
331 10.368257 60.000000 13.498464 12428 -10892 00000000 60.000000
332 10.399466 60.000000 14.625215 12428 -10892 00000000 60.000000
333 10.430722 60.000000 15.750215 12428 -10892 00000000 60.000000
334 10.461945 60.000000 16.873464 12428 -10892 00000000 60.000000
335 10.493194 60.000000 17.999365 12428 -10892 00000000 60.000000
336 10.524457 60.000000 19.124099 12428 -10892 00000000 60.000000
337 10.555629 60.000000 20.248386 12428 -10892 00000000 60.000000
338 10.586951 60.000000 21.377172 12428 -10892 00000000 60.000000
339 10.618162 60.000000 22.500343 12428 -10892 00000000 60.000000
340 10.649336 60.000000 23.623961 12428 -10892 00000000 60.000000
341 10.680572 60.000000 24.748558 12428 -10892 00000000 60.000000
342 10.711896 60.000000 25.875421 12428 -10892 00000000 60.000000
343 10.743260 60.000000 27.001562 12428 -10892 00000000 60.000000
344 10.774443 60.000000 28.124382 12428 -10892 00000000 60.000000
345 10.805702 60.000000 29.252051 12428 -10892 00000000 60.000000
346 10.836956 60.000000 30.376339 12428 -10892 00000000 60.000000
347 10.868188 60.000000 31.501202 12428 -10892 00000000 60.000000
348 10.899447 60.000000 32.623601 12428 -10892 00000000 60.000000
349 10.930699 60.000000 33.748464 12428 -10892 00000000 60.000000
350 10.961921 60.000000 34.876296 12428 -10892 00000000 60.000000
351 10.993163 60.000000 36.002000 12428 -10892 00000000 60.000000
352 11.024411 60.000000 37.126382 12428 -10892 00000000 60.000000
353 11.055588 60.000000 38.251425 12428 -10892 00000000 60.000000
354 11.086898 60.000000 39.374640 12428 -10892 00000000 60.000000
355 11.118161 60.000000 40.501742 12428 -10892 00000000 60.000000
356 11.149349 60.000000 41.625541 12428 -10892 00000000 60.000000
357 11.180762 60.000000 42.748610 12428 -10892 00000000 60.000000
358 11.211992 60.000000 43.875566 12428 -10892 00000000 60.000000
359 11.243216 60.000000 45.001485 12428 -10892 00000000 60.000000
360 11.274508 60.000000 46.126296 12428 -10892 00000000 60.000000
361 11.305748 60.000000 47.250137 12428 -10892 00000000 60.000000
362 11.336973 60.000000 48.375034 12428 -10892 00000000 60.000000
363 11.368231 60.000000 49.498910 12428 -10892 00000000 60.000000
364 11.399413 60.000000 50.626442 12428 -10892 00000000 60.000000
365 11.430633 60.000000 51.750893 12428 -10892 00000000 60.000000
366 11.461868 60.000000 52.876665 12428 -10892 00000000 60.000000
367 11.493157 60.000000 54.001090 12428 -10892 00000000 60.000000
368 11.524332 60.000000 55.125094 12428 -10892 00000000 60.000000
369 11.555571 60.000000 56.249202 12428 -10892 00000000 60.000000
370 11.586809 60.000000 57.373386 12428 -10892 00000000 60.000000
371 11.618179 60.000000 58.501502 12428 -10892 00000000 60.000000
372 11.649479 60.000000 59.624167 12428 -10892 00000000 60.000000
373 11.680654 60.000000 60.750601 12428 -10892 00000000 60.000000
374 11.711928 60.000000 61.874562 12428 -10892 00000000 60.000000
375 11.743128 60.000000 63.001760 12428 -10892 00000000 60.000000
376 11.774357 60.000000 64.124854 12428 -10892 00000000 60.000000
377 11.805666 60.000000 65.249356 12428 -10892 00000000 60.000000
378 11.836897 60.000000 66.375721 12428 -10892 00000000 60.000000
379 11.868127 60.000000 67.501691 12428 -10892 00000000 60.000000
380 11.899333 60.000000 68.623996 12428 -10892 00000000 60.000000
381 11.930605 60.000000 69.749167 12428 -10892 00000000 60.000000
382 11.961793 60.000000 70.873713 12428 -10892 00000000 60.000000
383 11.993050 60.000000 71.997580 12428 -10892 00000000 60.000000
384 12.024317 60.000000 73.127172 12428 -10892 00000000 60.000000
385 12.055754 60.000000 74.250807 12428 -10892 00000000 60.000000
386 12.086983 60.000000 75.374442 12428 -10892 00000000 60.000000
387 12.118203 60.000000 76.500438 12428 -10892 00000000 60.000000
388 12.149477 60.000000 77.624064 12428 -10892 00000000 60.000000
389 12.180606 60.000000 78.752026 12428 -10892 00000000 60.000000
390 12.211929 60.000000 79.876047 12428 -10892 00000000 60.000000
391 12.243071 60.000000 81.002060 12428 -10892 00000000 60.000000
392 12.274386 60.000000 82.125730 12428 -10892 00000000 60.000000
393 12.305570 60.000000 83.250730 12428 -10892 00000000 60.000000
394 12.336832 60.000000 84.374820 12428 -10892 00000000 60.000000
395 12.368087 60.000000 85.499142 12428 -10892 00000000 60.000000
396 12.399388 60.000000 86.624073 12428 -10892 00000000 60.000000
397 12.430540 60.000000 87.750421 12428 -10892 00000000 60.000000
398 12.461975 60.000000 88.876760 12428 -10892 00000000 60.000000
399 12.493157 60.000000 89.997511 12428 -10892 00000000 60.000000
400 12.524433 60.000000 91.125910 12428 -10892 00000000 60.000000
401 12.555679 60.000000 92.249863 12428 -10892 00000000 60.000000
402 12.586911 60.000000 93.374605 12428 -10892 00000000 60.000000
403 12.618158 60.000000 94.499270 12428 -10892 00000000 60.000000
404 12.649341 60.000000 95.626545 12428 -10892 00000000 60.000000
405 12.680650 60.000000 96.749700 12428 -10892 00000000 60.000000
406 12.711874 60.000000 97.874159 12428 -10892 00000000 60.000000
407 12.743111 60.000000 99.000223 12428 -10892 00000000 60.000000
408 12.774324 60.000000 100.124219 12428 -10892 00000000 60.000000
409 12.805636 60.000000 101.251717 12428 -10892 00000000 60.000000
410 12.836801 60.000000 102.376202 12428 -10892 00000000 60.000000
411 12.868175 60.000000 103.500738 12428 -10892 00000000 60.000000
412 12.899434 60.000000 104.625712 12428 -10892 00000000 60.000000
413 12.930705 60.000000 105.749751 12428 -10892 00000000 60.000000
414 12.961936 60.000000 106.874571 12428 -10892 00000000 60.000000
415 12.993235 60.000000 107.999571 12428 -10892 00000000 60.000000
416 13.024400 60.000000 109.123678 12428 -10892 00000000 60.000000
417 13.055622 60.000000 110.251991 12428 -10892 00000000 60.000000
418 13.086833 60.000000 111.376433 12428 -10892 00000000 60.000000
419 13.118174 60.000000 112.500841 12428 -10892 00000000 60.000000
420 13.149307 60.000000 113.627189 12428 -10892 00000000 60.000000
421 13.180571 60.000000 114.752189 12428 -10892 00000000 60.000000
422 13.212016 60.000000 115.873781 12428 -10892 00000000 60.000000
423 13.243262 60.000000 117.000154 12428 -10892 00000000 60.000000
424 13.274507 60.000000 118.123927 12428 -10892 00000000 60.000000
425 13.305750 60.000000 119.248644 12428 -10892 00000000 60.000000
426 13.336948 60.000000 120.376090 12428 -10892 00000000 60.000000
427 13.368223 60.000000 121.500927 12428 -10892 00000000 60.000000
428 13.399410 60.000000 122.624039 12428 -10892 00000000 60.000000
429 13.430693 60.000000 123.752154 12428 -10892 00000000 60.000000
430 13.461907 60.000000 124.876313 12428 -10892 00000000 60.000000
431 13.493167 60.000000 125.997245 12428 -10892 00000000 60.000000
432 13.524418 60.000000 127.126382 12428 -10892 00000000 60.000000
433 13.555603 60.000000 128.251133 12428 -10892 00000000 60.000000
434 13.586886 60.000000 129.375712 12428 -10892 00000000 60.000000
435 13.618067 60.000000 130.499288 12428 -10892 00000000 60.000000
436 13.649410 60.000000 131.625335 12428 -10892 00000000 60.000000
437 13.680780 60.000000 132.748695 12428 -10892 00000000 60.000000
438 13.711941 60.000000 133.877180 12428 -10892 00000000 60.000000
439 13.743267 60.000000 134.996987 12428 -10892 00000000 60.000000
440 13.774450 60.000000 136.125798 12428 -10892 00000000 60.000000
441 13.805700 60.000000 137.250678 12428 -10892 00000000 60.000000
442 13.837023 60.000000 138.373412 12428 -10892 00000000 60.000000
443 13.868164 60.000000 139.498601 12428 -10892 00000000 60.000000
444 13.899370 60.000000 140.626073 12428 -10892 00000000 60.000000
445 13.930637 60.000000 141.750901 12428 -10892 00000000 60.000000
446 13.961846 60.000000 142.874391 12428 -10892 00000000 60.000000
447 13.993108 60.000000 144.000421 12428 -10892 00000000 60.000000
448 14.024354 60.000000 145.124322 12428 -10892 00000000 60.000000
449 14.055653 60.000000 146.248515 12428 -10892 00000000 60.000000
450 14.086826 60.000000 147.377197 12428 -10892 00000000 60.000000
451 14.118251 60.000000 148.501373 12428 -10892 00000000 60.000000
452 14.149461 60.000000 149.624846 12428 -10892 00000000 60.000000
453 14.180722 60.000000 150.749734 12428 -10892 00000000 60.000000
454 14.211975 60.000000 151.874562 12428 -10892 00000000 60.000000
455 14.243218 60.000000 153.000927 12428 -10892 00000000 60.000000
456 14.274430 60.000000 154.124700 12428 -10892 00000000 60.000000
457 14.305673 60.000000 155.249228 12428 -10892 00000000 60.000000
458 14.336890 60.000000 156.373455 12428 -10892 00000000 60.000000
459 14.368113 60.000000 157.501064 12428 -10892 00000000 60.000000
460 14.399326 60.000000 158.624511 12428 -10892 00000000 60.000000
461 14.430574 60.000000 159.748549 12428 -10892 00000000 60.000000
462 14.461799 60.000000 160.873670 12428 -10892 00000000 60.000000
463 14.493041 60.000000 161.997777 12428 -10892 00000000 60.000000
464 14.524298 60.000000 163.126966 12428 -10892 00000000 60.000000
465 14.555697 60.000000 164.250043 12428 -10892 00000000 60.000000
466 14.586981 60.000000 165.373627 12428 -10892 00000000 60.000000
467 14.618170 60.000000 166.498567 12428 -10892 00000000 60.000000
468 14.649397 60.000000 167.626064 12428 -10892 00000000 60.000000
469 14.680604 60.000000 168.750910 12428 -10892 00000000 60.000000
470 14.711862 60.000000 169.874373 12428 -10892 00000000 60.000000
471 14.743064 60.000000 171.000833 12428 -10892 00000000 60.000000
472 14.774364 60.000000 172.123687 12428 -10892 00000000 60.000000
473 14.805588 60.000000 173.249665 12428 -10892 00000000 60.000000
474 14.836801 60.000000 174.377103 12428 -10892 00000000 60.000000
475 14.868017 60.000000 175.500927 12428 -10892 00000000 60.000000
476 14.899378 60.000000 176.625755 12428 -10892 00000000 60.000000
477 14.930591 60.000000 177.750764 12428 -10892 00000000 60.000000
478 14.961807 60.000000 178.874837 12428 -10892 00000000 60.000000
479 14.993176 60.000000 179.999202 12428 -10892 00000000 60.000000
480 15.024482 60.000000 181.123884 12428 -10892 00000000 60.000000
481 15.055744 60.000000 182.250318 12428 -10892 00000000 60.000000
482 15.086898 60.000000 183.374622 12428 -10892 00000000 60.000000
483 15.118122 60.000000 184.500275 12428 -10892 00000000 60.000000
484 15.149362 60.000000 185.627017 12428 -10892 00000000 60.000000
485 15.180630 60.000000 186.750360 12428 -10892 00000000 60.000000
486 15.211838 60.000000 187.875146 12428 -10892 00000000 60.000000
487 15.243117 60.000000 188.997434 12428 -10892 00000000 60.000000
488 15.274319 60.000000 190.124494 12428 -10892 00000000 60.000000
489 15.305543 60.000000 191.248755 12428 -10892 00000000 60.000000
490 15.336839 60.000000 192.376897 12428 -10892 00000000 60.000000
491 15.368103 60.000000 193.501923 12428 -10892 00000000 60.000000
492 15.399258 60.000000 194.624305 12428 -10892 00000000 60.000000
493 15.430593 60.000000 195.749451 12428 -10892 00000000 60.000000
494 15.461902 60.000000 196.875532 12428 -10892 00000000 60.000000
495 15.493133 60.000000 197.999871 12428 -10892 00000000 60.000000
496 15.524446 60.000000 199.124391 12428 -10892 00000000 60.000000
497 15.555646 60.000000 200.249047 12428 -10892 00000000 60.000000
498 15.586857 60.000000 201.376442 12428 -10892 00000000 60.000000
499 15.618110 60.000000 202.498996 12428 -10892 00000000 60.000000
500 15.649306 60.000000 203.624262 12428 -10892 00000000 60.000000
501 15.680605 60.000000 204.752180 12428 -10892 00000000 60.000000
502 15.711803 60.000000 205.876476 12428 -10892 00000000 60.000000
503 15.743066 60.000000 207.000996 12428 -10892 00000000 60.000000
504 15.774256 60.000000 208.126416 12428 -10892 00000000 60.000000
505 15.805547 60.000000 209.251476 12428 -10892 00000000 60.000000
506 15.836820 60.000000 210.375163 12428 -10892 00000000 60.000000
507 15.868236 60.000000 211.499262 12428 -10892 00000000 60.000000
508 15.899462 60.000000 212.623781 12428 -10892 00000000 60.000000
509 15.930725 60.000000 213.748961 12428 -10892 00000000 60.000000
510 15.961928 60.000000 214.875403 12428 -10892 00000000 60.000000
511 15.993125 60.000000 215.997597 12428 -10892 00000000 60.000000
512 16.024330 60.000000 217.125077 12428 -10892 00000000 60.000000
513 16.055634 60.000000 218.251322 12428 -10892 00000000 60.000000
514 16.086831 60.000000 219.377120 12428 -10892 00000000 60.000000
515 16.118079 60.000000 220.500120 12428 -10892 00000000 60.000000
516 16.149302 60.000000 221.626296 12428 -10892 00000000 60.000000
517 16.180550 60.000000 222.751167 12428 -10892 00000000 60.000000
518 16.211873 60.000000 223.874708 12428 -10892 00000000 60.000000
519 16.243027 60.000000 224.999949 12428 -10892 00000000 60.000000
520 16.274404 60.000000 226.125206 12428 -10892 00000000 60.000000
521 16.305682 60.000000 227.250875 12428 -10892 00000000 60.000000
522 16.336905 60.000000 228.374253 12428 -10892 00000000 60.000000
523 16.368142 60.000000 229.498755 12428 -10892 00000000 60.000000
524 16.399363 60.000000 230.625506 12428 -10892 00000000 60.000000
525 16.430608 60.000000 231.749863 12428 -10892 00000000 60.000000
526 16.461831 60.000000 232.873816 12428 -10892 00000000 60.000000
527 16.493091 60.000000 234.000661 12428 -10892 00000000 60.000000
528 16.524312 60.000000 235.127120 12428 -10892 00000000 60.000000
529 16.555598 60.000000 236.248816 12428 -10892 00000000 60.000000
530 16.586831 60.000000 237.376734 12428 -10892 00000000 60.000000
531 16.618010 60.000000 238.500798 12428 -10892 00000000 60.000000
532 16.649225 60.000000 239.624047 12428 -10892 00000000 60.000000
533 16.680569 60.000000 240.751270 12428 -10892 00000000 60.000000
534 16.711913 60.000000 241.876159 12428 -10892 00000000 60.000000
535 16.743210 60.000000 242.999640 12428 -10892 00000000 60.000000
536 16.774490 60.000000 244.124528 12428 -10892 00000000 60.000000
537 16.805725 60.000000 245.249013 12428 -10892 00000000 60.000000
538 16.836934 60.000000 246.376648 12428 -10892 00000000 60.000000
539 16.868171 60.000000 247.501605 12428 -10892 00000000 60.000000
540 16.899335 60.000000 248.624013 12428 -10892 00000000 60.000000
541 16.930577 60.000000 249.752069 12428 -10892 00000000 60.000000
542 16.961848 60.000000 250.876648 12428 -10892 00000000 60.000000
543 16.993052 60.000000 251.997554 12428 -10892 00000000 60.000000
544 17.024345 60.000000 253.126511 12428 -10892 00000000 60.000000
545 17.055667 60.000000 254.250463 12428 -10892 00000000 60.000000
546 17.087005 60.000000 255.375326 12428 -10892 00000000 60.000000
547 17.118217 60.000000 256.502163 12428 -10892 00000000 60.000000
548 17.149474 60.000000 257.623713 12428 -10892 00000000 60.000000
549 17.180673 60.000000 258.751811 12428 -10892 00000000 60.000000
550 17.211988 60.000000 259.877154 12428 -10892 00000000 60.000000
551 17.243220 60.000000 260.998713 12428 -10892 00000000 60.000000
552 17.274387 60.000000 262.126536 12428 -10892 00000000 60.000000
553 17.305609 60.000000 263.250996 12428 -10892 00000000 60.000000
554 17.336871 60.000000 264.374974 12428 -10892 00000000 60.000000
555 17.368151 60.000000 265.499949 12428 -10892 00000000 60.000000
556 17.399302 60.000000 266.626820 12428 -10892 00000000 60.000000
557 17.430556 60.000000 267.751056 12428 -10892 00000000 60.000000
558 17.461801 60.000000 268.875489 12428 -10892 00000000 60.000000
559 17.493060 60.000000 269.997442 12428 -10892 00000000 60.000000
560 17.524420 60.000000 271.124494 12428 -10892 00000000 60.000000
561 17.555646 60.000000 272.250034 12428 -10892 00000000 60.000000
562 17.586947 60.000000 273.375541 12428 -10892 00000000 60.000000
563 17.618162 60.000000 274.499760 12428 -10892 00000000 60.000000
564 17.649362 60.000000 275.626614 12428 -10892 00000000 60.000000
565 17.680646 60.000000 276.751116 12428 -10892 00000000 60.000000
566 17.711892 60.000000 277.875541 12428 -10892 00000000 60.000000
567 17.743154 60.000000 279.001013 12428 -10892 00000000 60.000000
568 17.774374 60.000000 280.125489 12428 -10892 00000000 60.000000
569 17.805564 60.000000 281.250292 12428 -10892 00000000 60.000000
570 17.836764 60.000000 282.374305 12428 -10892 00000000 60.000000
571 17.868052 60.000000 283.498369 12428 -10892 00000000 60.000000
572 17.899299 60.000000 284.625352 12428 -10892 00000000 60.000000
573 17.930591 60.000000 285.752000 12428 -10892 00000000 60.000000
574 17.961962 60.000000 286.876305 12428 -10892 00000000 60.000000
575 17.993174 60.000000 288.000343 12428 -10892 00000000 60.000000
576 18.024446 60.000000 289.124940 12428 -10892 00000000 60.000000
577 18.055723 60.000000 290.249013 12428 -10892 00000000 60.000000
578 18.086897 60.000000 291.377163 12428 -10892 00000000 60.000000
579 18.118163 60.000000 292.501828 12428 -10892 00000000 60.000000
580 18.149374 60.000000 293.624803 12428 -10892 00000000 60.000000
581 18.180593 60.000000 294.748876 12428 -10892 00000000 60.000000
582 18.211893 60.000000 295.873884 12428 -10892 00000000 60.000000
583 18.243093 60.000000 297.002197 12428 -10892 00000000 60.000000
584 18.274382 60.000000 298.126596 12428 -10892 00000000 60.000000
585 18.305501 60.000000 299.251519 12428 -10892 00000000 60.000000
586 18.336829 60.000000 -59.623713 12428 -10892 00000000 60.000000
587 18.368070 60.000000 -58.501099 12428 -10892 00000000 60.000000
588 18.399446 60.000000 -57.374228 12428 -10892 00000000 60.000000
589 18.430654 60.000000 -56.249451 12428 -10892 00000000 60.000000
590 18.461944 60.000000 -55.123661 12428 -10892 00000000 60.000000
591 18.493128 60.000000 -53.997828 12428 -10892 00000000 60.000000
592 18.524407 60.000000 -52.875232 12428 -10892 00000000 60.000000
593 18.555596 60.000000 -51.749682 12428 -10892 00000000 60.000000
594 18.586801 60.000000 -50.625000 12428 -10892 00000000 60.000000
595 18.618054 60.000000 -49.498627 12428 -10892 00000000 60.000000
596 18.649283 60.000000 -48.373215 12428 -10892 00000000 60.000000
597 18.680520 60.000000 -47.249416 12428 -10892 00000000 60.000000
598 18.711765 60.000000 -46.125009 12428 -10892 00000000 60.000000
599 18.742995 60.000000 -44.999296 12428 -10892 00000000 60.000000
600 18.774296 60.000000 -43.874923 12428 -10892 00000000 60.000000
601 18.805573 60.000000 -42.751511 12428 -10892 00000000 60.000000
602 18.836956 60.000000 -41.623017 12428 -10892 00000000 60.000000
603 18.868201 60.000000 -40.498361 12428 -10892 00000000 60.000000
604 18.899351 60.000000 -39.374537 12428 -10892 00000000 60.000000
605 18.930645 60.000000 -38.247957 12428 -10892 00000000 60.000000
606 18.961841 60.000000 -37.125798 12428 -10892 00000000 60.000000
607 18.993049 60.000000 -35.997760 12428 -10892 00000000 60.000000
608 19.024366 60.000000 -34.876502 12428 -10892 00000000 60.000000
609 19.055534 60.000000 -33.750910 12428 -10892 00000000 60.000000
610 19.086766 60.000000 -32.623163 12428 -10892 00000000 60.000000
611 19.118120 60.000000 -31.499554 12428 -10892 00000000 60.000000
612 19.149303 60.000000 -30.372914 12428 -10892 00000000 60.000000
613 19.180497 60.000000 -29.247949 12428 -10892 00000000 60.000000
614 19.211826 60.000000 -28.123172 12428 -10892 00000000 60.000000
615 19.243124 60.000000 -26.997983 12428 -10892 00000000 60.000000
616 19.274367 60.000000 -25.874700 12428 -10892 00000000 60.000000
617 19.305627 60.000000 -24.751227 12428 -10892 00000000 60.000000
618 19.336844 60.000000 -23.623077 12428 -10892 00000000 60.000000
619 19.368114 60.000000 -22.498558 12428 -10892 00000000 60.000000
620 19.399332 60.000000 -21.375326 12428 -10892 00000000 60.000000
621 19.430580 60.000000 -20.250910 12428 -10892 00000000 60.000000
622 19.461846 60.000000 -19.126511 12428 -10892 00000000 60.000000
623 19.493057 60.000000 -18.001107 12428 -10892 00000000 60.000000
624 19.524306 60.000000 -16.876605 12428 -10892 00000000 60.000000
625 19.555537 60.000000 -15.748610 12428 -10892 00000000 60.000000
626 19.586759 60.000000 -14.623721 12428 -10892 00000000 60.000000
627 19.618023 60.000000 -13.500112 12428 -10892 00000000 60.000000
628 19.649439 60.000000 -12.372966 12428 -10892 00000000 60.000000
629 19.680675 60.000000 -11.250112 12428 -10892 00000000 60.000000
630 19.711926 60.000000 -10.123541 12428 -10892 00000000 60.000000
631 19.743174 60.000000 -8.998034 12428 -10892 00000000 60.000000
632 19.774414 60.000000 -7.876588 12428 -10892 00000000 60.000000
633 19.805667 60.000000 -6.748738 12428 -10892 00000000 60.000000
634 19.836888 60.000000 -5.624545 12428 -10892 00000000 60.000000
635 19.868087 60.000000 -4.499176 12428 -10892 00000000 60.000000
636 19.899350 60.000000 -3.376554 12428 -10892 00000000 60.000000
637 19.930577 60.000000 -2.249245 12428 -10892 00000000 60.000000
638 19.961782 60.000000 -1.124210 12428 -10892 00000000 60.000000
639 19.993221 60.000000 0.002206 12428 -10892 00000000 60.000000
640 20.024483 60.000000 1.126845 12428 -10892 00000000 60.000000
641 20.055732 60.000000 2.251202 12428 -10892 00000000 60.000000
642 20.086978 60.000000 3.376142 12428 -10892 00000000 60.000000
643 20.118174 60.000000 4.500318 12428 -10892 00000000 60.000000
644 20.149387 60.000000 5.627120 12428 -10892 00000000 49.553191
645 20.180665 60.000000 6.751614 12428 -10892 00000000 49.553191
646 20.211993 60.000000 7.874416 12428 -10892 00000000 49.553191
647 20.243148 60.000000 9.001888 12428 -10892 00000000 49.553191
648 20.274358 59.891610 10.125833 12428 -10891 00000000 49.553191
649 20.305614 59.674829 11.250026 12426 -10891 00000000 49.553191
650 20.336822 59.458049 12.374451 12425 -10890 00000000 49.553191
651 20.368135 59.132878 13.501682 12423 -10889 00000000 49.553191
652 20.399381 58.590927 14.624571 12420 -10887 00000000 49.553191
653 20.430691 58.157367 15.748670 12418 -10885 00000000 49.553191
654 20.461972 57.615415 16.873635 12416 -10882 00000000 49.553191
655 20.493198 57.181855 18.000858 12414 -10880 00000000 49.553191
656 20.524490 56.748294 19.125790 12412 -10878 00000000 49.553191
657 20.555667 56.314733 20.249562 12410 -10876 00000000 49.553191
658 20.586898 55.772782 21.373584 12408 -10873 00000000 49.553191
659 20.618143 55.447611 22.501657 12406 -10872 00000000 49.553191
660 20.649460 55.014051 23.623507 12404 -10870 00000000 49.553191
661 20.680696 54.688880 24.748704 12403 -10868 00000000 49.553191
662 20.711931 54.146929 25.874056 12400 -10866 00000000 49.553191
663 20.743085 53.821758 26.998979 12399 -10864 00000000 49.553191
664 20.774295 53.279807 28.124356 12396 -10862 00000000 49.553191
665 20.805620 52.737856 29.251545 12394 -10859 00000000 49.553191
666 20.836867 52.304295 30.376923 12392 -10857 00000000 49.553191
667 20.868242 52.087515 31.499167 12391 -10856 00000000 49.553191
668 20.899452 51.545564 32.627051 12388 -10854 00000000 49.553191
669 20.930672 51.112003 33.749760 12387 -10851 00000000 49.553191
670 20.961966 50.570052 34.874228 12384 -10849 00000000 49.553191
671 20.993185 50.244882 35.998901 12382 -10848 00000000 49.553191
672 21.024451 49.702931 37.124107 12380 -10845 00000000 49.553191
673 21.055618 49.377760 38.252163 12379 -10843 00000000 49.553191
674 21.086900 49.052589 39.376768 12377 -10842 00000000 49.553191
675 21.118043 49.052589 40.500446 12377 -10842 00000000 49.553191
676 21.149337 49.160980 41.623790 12378 -10842 00000000 49.553191
677 21.180591 49.160980 42.751897 12378 -10842 00000000 49.553191
678 21.211828 49.160980 43.876691 12378 -10842 00000000 49.553191
679 21.243064 49.160980 45.001948 12378 -10842 00000000 49.553191
680 21.274318 49.160980 46.126562 12378 -10842 00000000 49.553191
681 21.305580 49.160980 47.249880 12378 -10842 00000000 49.553191
682 21.336958 49.160980 48.373687 12378 -10842 00000000 49.553191
683 21.368208 49.160980 49.499562 12378 -10842 00000000 49.553191
684 21.399329 49.160980 50.624837 12378 -10842 00000000 49.553191
685 21.430649 49.160980 51.749039 12378 -10842 00000000 49.553191
686 21.461880 49.160980 52.874236 12378 -10842 00000000 49.553191
687 21.493076 49.160980 53.999064 12378 -10842 00000000 49.553191
688 21.524274 49.160980 55.125412 12378 -10842 00000000 49.553191
689 21.555492 49.160980 56.248429 12378 -10842 00000000 49.553191
690 21.586721 49.160980 57.377111 12378 -10842 00000000 49.553191
691 21.618027 49.160980 58.499022 12378 -10842 00000000 49.553191
692 21.649196 49.160980 59.623687 12378 -10842 00000000 49.553191
693 21.680571 49.160980 60.749966 12378 -10842 00000000 49.553191
694 21.711801 49.160980 61.874125 12378 -10842 00000000 49.553191
695 21.742995 49.160980 62.999777 12378 -10842 00000000 49.553191
696 21.774381 49.160980 64.126605 12378 -10842 00000000 49.553191
697 21.805597 49.160980 65.252069 12378 -10842 00000000 49.553191
698 21.836905 49.160980 66.376433 12378 -10842 00000000 49.553191
699 21.868140 49.160980 67.498472 12378 -10842 00000000 49.553191
700 21.899384 49.160980 68.625541 12378 -10842 00000000 49.553191
701 21.930626 49.160980 69.751837 12378 -10842 00000000 49.553191
702 21.961808 49.160980 70.874185 12378 -10842 00000000 49.553191
703 21.993035 49.160980 71.999846 12378 -10842 00000000 49.553191
704 22.024307 49.160980 73.124022 12378 -10842 00000000 49.553191
705 22.055470 49.160980 74.252146 12378 -10842 00000000 49.553191
706 22.086756 49.160980 75.376562 12378 -10842 00000000 49.553191
707 22.117969 49.160980 76.500103 12378 -10842 00000000 49.553191
708 22.149225 49.160980 77.624434 12378 -10842 00000000 49.553191
709 22.180482 49.160980 78.752008 12378 -10842 00000000 49.553191
710 22.211793 49.160980 79.874090 12378 -10842 00000000 49.553191
711 22.243082 49.160980 80.999597 12378 -10842 00000000 49.553191
712 22.274357 49.160980 82.126837 12378 -10842 00000000 49.553191
713 22.305600 49.160980 83.251356 12378 -10842 00000000 49.553191
714 22.336893 49.160980 84.376554 12378 -10842 00000000 49.553191
715 22.368061 49.160980 85.499854 12378 -10842 00000000 49.553191
716 22.399248 49.160980 86.623773 12378 -10842 00000000 49.553191
717 22.430522 49.160980 87.751605 12378 -10842 00000000 49.553191
718 22.461725 49.160980 88.875807 12378 -10842 00000000 49.553191
719 22.493019 49.160980 90.000824 12378 -10842 00000000 49.553191
720 22.524215 49.160980 91.124399 12378 -10842 00000000 49.553191
721 22.555479 49.160980 92.249957 12378 -10842 00000000 49.553191
722 22.586723 49.160980 93.375395 12378 -10842 00000000 49.553191
723 22.618005 49.160980 94.498464 12378 -10842 00000000 49.553191
724 22.649340 49.160980 95.625318 12378 -10842 00000000 49.553191
725 22.680625 49.160980 96.751219 12378 -10842 00000000 49.553191
726 22.711921 49.160980 97.875798 12378 -10842 00000000 49.553191
727 22.743120 49.160980 98.998893 12378 -10842 00000000 49.553191
728 22.774355 49.160980 100.125755 12378 -10842 00000000 49.553191
729 22.805536 49.160980 101.248567 12378 -10842 00000000 49.553191
730 22.836814 49.160980 102.376116 12378 -10842 00000000 49.553191
731 22.868063 49.160980 103.500910 12378 -10842 00000000 49.553191
732 22.899288 49.160980 104.626227 12378 -10842 00000000 49.553191
733 22.930559 49.160980 105.749657 12378 -10842 00000000 49.553191
734 22.961778 49.160980 106.874116 12378 -10842 00000000 49.553191
735 22.992991 49.160980 107.999588 12378 -10842 00000000 49.553191
736 23.024215 49.160980 109.127154 12378 -10842 00000000 49.553191
737 23.055663 49.160980 110.249674 12378 -10842 00000000 49.553191
738 23.086944 49.160980 111.373996 12378 -10842 00000000 49.553191
739 23.118108 49.160980 112.502060 12378 -10842 00000000 49.553191
740 23.149350 49.160980 113.624562 12378 -10842 00000000 49.553191
741 23.180610 49.160980 114.749459 12378 -10842 00000000 49.553191
742 23.211802 49.160980 115.873824 12378 -10842 00000000 49.553191
743 23.243068 49.160980 116.999022 12378 -10842 00000000 49.553191
744 23.274248 49.160980 118.124519 12378 -10842 00000000 49.553191
745 23.305501 49.160980 119.251296 12378 -10842 00000000 49.553191
746 23.336802 49.160980 120.376631 12378 -10842 00000000 49.553191
747 23.367999 49.160980 121.500798 12378 -10842 00000000 49.553191
748 23.399190 49.160980 122.623472 12378 -10842 00000000 49.553191
749 23.430450 49.160980 123.751691 12378 -10842 00000000 49.553191
750 23.461765 49.160980 124.875695 12378 -10842 00000000 49.553191
751 23.493158 49.160980 126.000867 12378 -10842 00000000 49.553191
752 23.524380 49.160980 127.124133 12378 -10842 00000000 49.553191
753 23.555616 49.160980 128.252214 12378 -10842 00000000 49.553191
754 23.586870 49.160980 129.376596 12378 -10842 00000000 49.553191
755 23.618071 49.160980 130.501305 12378 -10842 00000000 49.553191
756 23.649353 49.160980 131.624116 12378 -10842 00000000 49.553191
757 23.680576 49.160980 132.751957 12378 -10842 00000000 49.553191
758 23.711754 49.160980 133.876476 12378 -10842 00000000 49.553191
759 23.743028 49.160980 135.002197 12378 -10842 00000000 49.553191
760 23.774240 49.160980 136.126725 12378 -10842 00000000 49.553191
761 23.805589 49.160980 137.250687 12378 -10842 00000000 49.553191
762 23.836786 49.160980 138.374382 12378 -10842 00000000 49.553191
763 23.868113 49.160980 139.499073 12378 -10842 00000000 49.553191
764 23.899438 49.160980 140.627000 12378 -10842 00000000 49.553191
765 23.930707 49.160980 141.751751 12378 -10842 00000000 49.553191
766 23.961918 49.160980 142.876270 12378 -10842 00000000 49.553191
767 23.993145 49.160980 144.001742 12378 -10842 00000000 49.553191
768 24.024319 49.160980 145.126313 12378 -10842 00000000 49.553191
769 24.055579 49.160980 146.249794 12378 -10842 00000000 49.553191
770 24.086848 49.160980 147.375009 12378 -10842 00000000 49.553191
771 24.118043 49.160980 148.499004 12378 -10842 00000000 49.553191
772 24.149298 49.160980 149.625970 12378 -10842 00000000 49.553191
773 24.180561 49.160980 150.750669 12378 -10842 00000000 49.553191
774 24.211778 49.160980 151.874356 12378 -10842 00000000 49.553191
775 24.243005 49.160980 153.000060 12378 -10842 00000000 49.553191
776 24.274359 49.160980 154.124193 12378 -10842 00000000 49.553191
777 24.305687 49.160980 155.251940 12378 -10842 00000000 49.553191
778 24.336898 49.160980 156.375103 12378 -10842 00000000 49.553191
779 24.368133 49.160980 157.498352 12378 -10842 00000000 49.553191
780 24.399399 49.160980 158.625755 12378 -10842 00000000 49.553191
781 24.430562 49.160980 159.749785 12378 -10842 00000000 49.553191
782 24.461844 49.160980 160.874571 12378 -10842 00000000 49.553191
783 24.493119 49.160980 161.999451 12378 -10842 00000000 49.553191
784 24.524350 49.160980 163.124760 12378 -10842 00000000 49.553191
785 24.555548 49.160980 164.248996 12378 -10842 00000000 49.553191
786 24.586767 49.160980 165.376897 12378 -10842 00000000 49.553191
787 24.618025 49.160980 166.501305 12378 -10842 00000000 49.553191
788 24.649260 49.160980 167.624193 12378 -10842 00000000 49.553191
789 24.680492 49.160980 168.748584 12378 -10842 00000000 49.553191
790 24.711806 49.160980 169.875970 12378 -10842 00000000 49.553191
791 24.743103 49.160980 171.001802 12378 -10842 00000000 49.553191
792 24.774390 49.160980 172.124210 12378 -10842 00000000 49.553191
793 24.805661 49.160980 173.252060 12378 -10842 00000000 49.553191
794 24.836951 49.160980 174.377060 12378 -10842 00000000 49.553191
795 24.868136 49.160980 175.500601 12378 -10842 00000000 49.553191
796 24.899338 49.160980 176.623627 12378 -10842 00000000 49.553191
797 24.930602 49.160980 177.751751 12378 -10842 00000000 49.553191
798 24.961856 49.160980 178.873481 12378 -10842 00000000 49.553191
799 24.993044 49.160980 180.001794 12378 -10842 00000000 49.553191
800 25.024249 49.160980 181.126648 12378 -10842 00000000 49.553191
801 25.055517 49.160980 182.251039 12378 -10842 00000000 49.553191
802 25.086712 49.160980 183.375575 12378 -10842 00000000 49.553191
803 25.117985 49.160980 184.499391 12378 -10842 00000000 49.553191
804 25.149272 49.160980 185.625197 12378 -10842 00000000 49.553191
805 25.180598 49.160980 186.749442 12378 -10842 00000000 49.553191
806 25.211856 49.160980 187.873876 12378 -10842 00000000 49.553191
807 25.243059 49.160980 189.002249 12378 -10842 00000000 49.553191
808 25.274300 49.160980 190.125884 12378 -10842 00000000 49.553191
809 25.305604 49.160980 191.249039 12378 -10842 00000000 49.553191
810 25.336779 49.160980 192.373781 12378 -10842 00000000 49.553191
811 25.368068 49.160980 193.498455 12378 -10842 00000000 49.553191
812 25.399272 49.160980 194.624743 12378 -10842 00000000 49.553191
813 25.430546 49.160980 195.749794 12378 -10842 00000000 49.553191
814 25.461775 49.160980 196.873790 12378 -10842 00000000 49.553191
815 25.493008 49.160980 197.999682 12378 -10842 00000000 49.553191
816 25.524236 49.160980 199.124468 12378 -10842 00000000 49.553191
817 25.555468 49.160980 200.252214 12378 -10842 00000000 49.553191
818 25.586773 49.160980 201.376004 12378 -10842 00000000 49.553191
819 25.618119 49.160980 202.501253 12378 -10842 00000000 49.553191
820 25.649378 49.160980 203.625103 12378 -10842 00000000 49.553191
821 25.680547 49.160980 204.749408 12378 -10842 00000000 49.553191
822 25.711867 49.160980 205.876983 12378 -10842 00000000 49.553191
823 25.743091 49.160980 206.997820 12378 -10842 00000000 49.553191
824 25.774233 49.160980 208.124880 12378 -10842 00000000 49.553191
825 25.805554 49.160980 209.250386 12378 -10842 00000000 49.553191
826 25.836782 49.160980 210.376940 12378 -10842 00000000 49.553191
827 25.867972 49.160980 211.500472 12378 -10842 00000000 49.553191
828 25.899254 49.160980 212.624039 12378 -10842 00000000 49.553191
829 25.930497 49.160980 213.751717 12378 -10842 00000000 49.553191
830 25.961719 49.160980 214.876296 12378 -10842 00000000 49.553191
831 25.992939 49.160980 216.001227 12378 -10842 00000000 49.553191
832 26.024382 49.160980 217.126279 12378 -10842 00000000 49.553191
833 26.055611 49.160980 218.248670 12378 -10842 00000000 49.553191
834 26.086864 49.160980 219.375833 12378 -10842 00000000 49.553191
835 26.118122 49.160980 220.500249 12378 -10842 00000000 49.553191
836 26.149325 49.160980 221.623919 12378 -10842 00000000 49.553191
837 26.180576 49.160980 222.751691 12378 -10842 00000000 49.553191
838 26.211732 49.160980 223.873524 12378 -10842 00000000 49.553191
839 26.242974 49.160980 225.000069 12378 -10842 00000000 49.553191
840 26.274259 49.160980 226.126253 12378 -10842 00000000 49.553191
841 26.305498 49.160980 227.250163 12378 -10842 00000000 49.553191
842 26.336747 49.160980 228.374966 12378 -10842 00000000 49.553191
843 26.367974 49.160980 229.498687 12378 -10842 00000000 49.553191
844 26.399230 49.160980 230.624828 12378 -10842 00000000 49.553191
845 26.430617 49.160980 231.748481 12378 -10842 00000000 49.553191
846 26.461901 49.160980 232.875335 12378 -10842 00000000 49.553191
847 26.493090 49.160980 234.000953 12378 -10842 00000000 49.553191
848 26.524386 49.160980 235.125678 12378 -10842 00000000 49.553191
849 26.555625 49.160980 236.249682 12378 -10842 00000000 49.553191
850 26.586784 49.160980 237.373798 12378 -10842 00000000 49.553191
851 26.618009 49.160980 238.501974 12378 -10842 00000000 49.553191
852 26.649329 49.160980 239.624502 12378 -10842 00000000 49.553191
853 26.680568 49.160980 240.749442 12378 -10842 00000000 49.553191
854 26.711729 49.160980 241.873404 12378 -10842 00000000 49.553191
855 26.743051 49.160980 243.000601 12378 -10842 00000000 49.553191
856 26.774224 49.160980 244.123781 12378 -10842 00000000 49.553191
857 26.805429 49.160980 245.251811 12378 -10842 00000000 49.553191
858 26.836665 49.160980 246.376545 12378 -10842 00000000 49.553191
859 26.867985 49.160980 247.499459 12378 -10842 00000000 49.553191
860 26.899355 49.160980 248.625764 12378 -10842 00000000 49.553191
861 26.930577 49.160980 249.749047 12378 -10842 00000000 49.553191
862 26.961851 49.160980 250.873936 12378 -10842 00000000 49.553191
863 26.993143 49.160980 251.997648 12378 -10842 00000000 49.553191
864 27.024323 49.160980 253.124588 12378 -10842 00000000 49.553191
865 27.055529 49.160980 254.252111 12378 -10842 00000000 49.553191
866 27.086753 49.160980 255.376622 12378 -10842 00000000 49.553191
867 27.117965 49.160980 256.500584 12378 -10842 00000000 49.553191
868 27.149247 49.160980 257.624331 12378 -10842 00000000 49.553191
869 27.180479 49.160980 258.748489 12378 -10842 00000000 49.553191
870 27.211718 49.160980 259.876605 12378 -10842 00000000 49.553191
871 27.243084 49.160980 261.000944 12378 -10842 00000000 49.553191
872 27.274350 49.160980 262.125154 12378 -10842 00000000 49.553191
873 27.305669 49.160980 263.252008 12378 -10842 00000000 49.553191
874 27.336842 49.160980 264.376262 12378 -10842 00000000 49.553191
875 27.368107 49.160980 265.501090 12378 -10842 00000000 49.553191
876 27.399332 49.160980 266.624451 12378 -10842 00000000 49.553191
877 27.430614 49.160980 267.751622 12378 -10842 00000000 49.553191
878 27.461856 49.160980 268.877180 12378 -10842 00000000 49.553191
879 27.493054 49.160980 270.001536 12378 -10842 00000000 49.553191
880 27.524225 49.160980 271.123524 12378 -10842 00000000 49.553191
881 27.555481 49.160980 272.251287 12378 -10842 00000000 49.553191
882 27.586723 49.160980 273.375695 12378 -10842 00000000 49.553191
883 27.618042 49.160980 274.498412 12378 -10842 00000000 49.553191
884 27.649287 49.160980 275.625300 12378 -10842 00000000 49.553191
885 27.680616 49.160980 276.750704 12378 -10842 00000000 49.553191
886 27.711820 49.160980 277.875103 12378 -10842 00000000 49.553191
887 27.743106 49.160980 279.002060 12378 -10842 00000000 49.553191
888 27.774338 49.160980 280.126828 12378 -10842 00000000 49.553191
889 27.805583 49.160980 281.250652 12378 -10842 00000000 49.553191
890 27.836813 49.160980 282.375335 12378 -10842 00000000 49.553191
891 27.868006 49.160980 283.499331 12378 -10842 00000000 49.553191
892 27.899259 49.160980 284.626390 12378 -10842 00000000 49.553191
893 27.930562 49.160980 285.751150 12378 -10842 00000000 49.553191
894 27.961764 49.160980 286.875360 12378 -10842 00000000 49.553191
895 27.992988 49.160980 288.000403 12378 -10842 00000000 49.553191
896 28.024189 49.160980 289.125197 12378 -10842 00000000 49.553191
897 28.055461 49.160980 290.250240 12378 -10842 00000000 49.553191
898 28.086684 49.160980 291.373893 12378 -10842 00000000 49.553191
899 28.118129 49.160980 292.501365 12378 -10842 00000000 49.553191
900 28.149405 49.160980 293.625549 12378 -10842 00000000 49.553191
901 28.180558 49.160980 294.751373 12378 -10842 00000000 49.553191
902 28.211863 49.160980 295.873438 12378 -10842 00000000 49.553191
903 28.243000 49.160980 296.997657 12378 -10842 00000000 49.553191
904 28.274326 49.160980 298.126871 12378 -10842 00000000 49.553191
905 28.305514 49.160980 299.252111 12378 -10842 00000000 49.553191
906 28.336776 49.160980 300.374863 12378 -10842 00000000 49.553191
907 28.368001 49.160980 301.502163 12378 -10842 00000000 49.553191
908 28.399203 49.160980 302.625781 12378 -10842 00000000 49.553191
909 28.430485 49.160980 303.750275 12378 -10842 00000000 49.553191
910 28.461737 49.160980 304.876828 12378 -10842 00000000 49.553191
911 28.492949 49.160980 306.002026 12378 -10842 00000000 49.553191
912 28.524214 49.160980 307.127172 12378 -10842 00000000 49.553191
913 28.555576 49.160980 308.249039 12378 -10842 00000000 49.553191
914 28.586806 49.160980 309.374064 12378 -10842 00000000 49.553191
915 28.618088 49.160980 310.500652 12378 -10842 00000000 49.553191
916 28.649355 49.160980 -48.376562 12378 -10842 00000000 49.553191
917 28.680576 49.160980 -47.248386 12378 -10842 00000000 49.553191
918 28.711804 49.160980 -46.125386 12378 -10842 00000000 49.553191
919 28.743000 49.160980 -45.002566 12378 -10842 00000000 49.553191
920 28.774198 49.160980 -43.873258 12378 -10842 00000000 49.553191
921 28.805476 49.160980 -42.748910 12378 -10842 00000000 49.553191
922 28.836721 49.160980 -41.624854 12378 -10842 00000000 49.553191
923 28.867908 49.160980 -40.501167 12378 -10842 00000000 49.553191
924 28.899186 49.160980 -39.373816 12378 -10842 00000000 49.553191
925 28.930428 49.160980 -38.249700 12378 -10842 00000000 49.553191
926 28.961668 49.160980 -37.124494 12378 -10842 00000000 49.553191
927 28.993075 49.160980 -36.002335 12378 -10842 00000000 49.553191
928 29.024335 49.160980 -34.875421 12378 -10842 00000000 49.553191
929 29.055552 49.160980 -33.749846 12378 -10842 00000000 49.553191
930 29.086800 49.160980 -32.624691 12378 -10842 00000000 49.553191
931 29.118019 49.160980 -31.499708 12378 -10842 00000000 49.553191
932 29.149289 49.160980 -30.374348 12378 -10842 00000000 49.553191
933 29.180493 49.160980 -29.248464 12378 -10842 00000000 49.553191
934 29.211758 49.160980 -28.123721 12378 -10842 00000000 49.553191
935 29.242977 49.160980 -27.000463 12378 -10842 00000000 49.553191
936 29.274235 49.160980 -25.875618 12378 -10842 00000000 49.553191
937 29.305415 49.160980 -24.749228 12378 -10842 00000000 49.553191
938 29.336720 49.160980 -23.623163 12378 -10842 00000000 49.553191
939 29.367918 49.160980 -22.498146 12378 -10842 00000000 49.553191
940 29.399244 49.160980 -21.376416 12378 -10842 00000000 49.553191
941 29.430538 49.160980 -20.247914 12378 -10842 00000000 49.553191
942 29.461831 49.160980 -19.125463 12378 -10842 00000000 49.553191
943 29.493068 49.160980 -18.000841 12378 -10842 00000000 49.553191
944 29.524288 49.160980 -16.876442 12378 -10842 00000000 49.553191
945 29.555532 49.160980 -15.751433 12378 -10842 00000000 49.553191
946 29.586793 49.160980 -14.622837 12378 -10842 00000000 49.553191
947 29.618016 49.160980 -13.500558 12378 -10842 00000000 49.553191
948 29.649248 49.160980 -12.376313 12378 -10842 00000000 49.553191
949 29.680486 49.160980 -11.247957 12378 -10842 00000000 49.553191
950 29.711668 49.160980 -10.126571 12378 -10842 00000000 49.553191
951 29.742932 49.160980 -8.998043 12378 -10842 00000000 49.553191
952 29.774187 49.160980 -7.873343 12378 -10842 00000000 49.553191
953 29.805480 49.160980 -6.749820 12378 -10842 00000000 49.553191
954 29.836881 49.160980 -5.624803 12378 -10842 00000000 49.553191
955 29.868086 49.160980 -4.499519 12378 -10842 00000000 49.553191
956 29.899324 49.160980 -3.376116 12378 -10842 00000000 49.553191
957 29.930584 49.160980 -2.248429 12378 -10842 00000000 49.553191
958 29.961836 49.160980 -1.123652 12378 -10842 00000000 49.553191
959 29.993048 49.160980 0.001236 12378 -10842 00000000 49.553191
960 30.024298 49.160980 1.125970 12378 -10842 00000000 49.553191
961 30.055469 49.160980 2.250163 12378 -10842 00000000 49.553191
962 30.086729 49.160980 3.374897 12378 -10842 00000000 49.553191
963 30.117921 49.160980 4.499253 12378 -10842 00000000 49.553191
964 30.149277 49.160980 5.626159 12378 -10842 00000000 49.553191
965 30.180408 49.160980 6.750283 12378 -10842 00000000 49.553191
966 30.211706 49.160980 7.875644 12378 -10842 00000000 49.553191
967 30.242930 49.160980 8.999691 12378 -10842 00000000 49.553191
968 30.274388 49.160980 10.126536 12378 -10842 00000000 49.553191
969 30.305619 49.160980 11.251451 12378 -10842 00000000 49.553191
970 30.336788 49.160980 12.375369 12378 -10842 00000000 49.553191
971 30.368016 49.160980 13.498618 12378 -10842 00000000 49.553191
972 30.399345 49.160980 14.624365 12378 -10842 00000000 49.553191
973 30.430504 49.160980 15.749803 12378 -10842 00000000 49.553191
974 30.461738 49.160980 16.874425 12378 -10842 00000000 49.553191
975 30.492949 49.160980 17.999185 12378 -10842 00000000 49.553191
976 30.524204 49.160980 19.124185 12378 -10842 00000000 49.553191
977 30.555478 49.160980 20.248747 12378 -10842 00000000 49.553191
978 30.586706 49.160980 21.376777 12378 -10842 00000000 49.553191
979 30.618095 49.160980 22.499193 12378 -10842 00000000 49.553191
980 30.649350 49.160980 23.626751 12378 -10842 00000000 49.553191
981 30.680550 49.160980 24.750601 12378 -10842 00000000 49.553191
982 30.711840 49.160980 25.873661 12378 -10842 00000000 49.553191
983 30.743151 49.160980 26.999974 12378 -10842 00000000 49.553191
984 30.774300 49.160980 28.123713 12378 -10842 00000000 49.553191
985 30.805567 49.160980 29.251794 12378 -10842 00000000 49.553191
986 30.836787 49.160980 30.376339 12378 -10842 00000000 49.553191
987 30.868020 49.160980 31.500927 12378 -10842 00000000 49.553191
988 30.899294 49.160980 32.626236 12378 -10842 00000000 49.553191
989 30.930448 49.160980 33.748515 12378 -10842 00000000 49.553191
990 30.961768 49.160980 34.875970 12378 -10842 00000000 49.553191
991 30.992941 49.160980 36.001717 12378 -10842 00000000 49.553191
992 31.024267 49.160980 37.125772 12378 -10842 00000000 49.553191
993 31.055623 49.160980 38.251322 12378 -10842 00000000 49.553191
994 31.086834 49.160980 39.374605 12378 -10842 00000000 49.553191
995 31.118098 49.160980 40.500644 12378 -10842 00000000 49.553191
996 31.149299 49.160980 41.623635 12378 -10842 00000000 49.553191
997 31.180611 49.160980 42.751863 12378 -10842 00000000 49.553191
998 31.211802 49.160980 43.876614 12378 -10842 00000000 49.553191
999 31.243037 49.160980 45.001888 12378 -10842 00000000 49.553191
1000 31.274311 49.160980 46.126408 12378 -10842 00000000 49.553191
1001 31.305544 49.160980 47.251502 12378 -10842 00000000 49.553191
1002 31.336700 49.160980 48.374940 12378 -10842 00000000 49.553191
1003 31.367943 49.160980 49.500257 12378 -10842 00000000 49.553191
1004 31.399194 49.160980 50.626657 12378 -10842 00000000 49.553191
1005 31.430466 49.160980 51.750936 12378 -10842 00000000 49.553191
1006 31.461763 49.160980 52.874382 12378 -10842 00000000 49.553191
1007 31.493103 49.160980 53.999794 12378 -10842 00000000 49.553191
1008 31.524360 49.160980 55.123781 12378 -10842 00000000 49.553191
1009 31.555586 49.160980 56.252051 12378 -10842 00000000 49.553191
1010 31.586801 49.160980 57.377077 12378 -10842 00000000 49.553191
1011 31.618012 49.160980 58.500438 12378 -10842 00000000 49.553191
1012 31.649271 49.160980 59.624459 12378 -10842 00000000 49.553191
1013 31.680477 49.160980 60.748816 12378 -10842 00000000 49.553191
1014 31.711708 49.160980 61.876442 12378 -10842 00000000 49.553191
1015 31.742987 49.160980 63.001871 12378 -10842 00000000 49.553191
1016 31.774236 49.160980 64.123678 12378 -10842 00000000 49.553191
1017 31.805383 49.160980 65.248464 12378 -10842 00000000 49.553191
1018 31.836727 49.160980 66.373850 12378 -10842 00000000 49.553191
1019 31.867908 49.160980 67.501253 12378 -10842 00000000 49.553191
1020 31.899219 49.160980 68.624107 12378 -10842 00000000 49.553191
1021 31.930479 49.160980 69.751579 12378 -10842 00000000 49.553191
1022 31.961826 49.160980 70.875189 12378 -10842 00000000 49.553191
1023 31.993026 49.160980 72.000901 12378 -10842 00000000 49.553191
1024 32.024336 49.160980 73.124047 12378 -10842 00000000 49.553191
1025 32.055505 49.160980 74.248481 12378 -10842 00000000 49.553191
1026 32.086770 49.160980 75.376717 12378 -10842 00000000 49.553191
1027 32.117989 49.160980 76.499880 12378 -10842 00000000 49.553191
1028 32.149256 49.160980 77.624313 12378 -10842 00000000 49.553191
1029 32.180491 49.160980 78.751296 12378 -10842 00000000 49.553191
1030 32.211737 49.160980 79.875978 12378 -10842 00000000 49.553191
1031 32.242984 49.160980 80.997631 12378 -10842 00000000 49.553191
1032 32.274158 49.160980 82.126373 12378 -10842 00000000 46.485476
1033 32.305389 49.160980 83.250884 12378 -10842 00000000 46.485476
1034 32.336661 49.160980 84.374356 12378 -10842 00000000 46.485476
1035 32.368093 49.160980 85.501639 12378 -10842 00000000 46.485476
1036 32.399368 49.052589 86.627103 12377 -10842 00000000 46.485476
1037 32.430633 48.944199 87.751605 12376 -10842 00000000 46.485476
1038 32.461867 48.619029 88.876287 12375 -10840 00000000 46.485476
1039 32.493096 48.293858 89.996996 12373 -10839 00000000 46.485476
1040 32.524316 47.751907 91.126390 12370 -10837 00000000 46.485476
1041 32.555476 47.209956 92.250172 12368 -10834 00000000 46.485476
1042 32.586684 46.884785 93.376734 12367 -10832 00000000 46.485476
1043 32.617987 46.342834 94.498996 12364 -10830 00000000 46.485476
1044 32.649230 46.017664 95.625687 12363 -10828 00000000 46.485476
1045 32.680504 45.800883 96.749030 12362 -10827 00000000 46.485476
1046 32.711751 45.800883 97.874090 12362 -10827 00000000 46.485476
1047 32.742950 45.800883 98.999047 12362 -10827 00000000 46.485476
1048 32.774347 45.909273 100.124700 12362 -10828 00000000 46.485476
1049 32.805569 46.017664 101.250309 12363 -10828 00000000 46.485476
1050 32.836883 46.342834 102.374562 12365 -10829 00000000 46.485476
1051 32.868129 46.451224 103.498824 12365 -10830 00000000 46.485476
1052 32.899281 46.559615 104.625815 12365 -10831 00000000 46.485476
1053 32.930474 46.559615 105.751579 12365 -10831 00000000 46.485476
1054 32.961747 46.559615 106.874382 12365 -10831 00000000 46.485476
1055 32.992959 46.559615 108.001390 12365 -10831 00000000 46.485476
1056 33.024189 46.559615 109.126099 12365 -10831 00000000 46.485476
1057 33.055467 46.559615 110.248412 12365 -10831 00000000 46.485476
1058 33.086734 46.559615 111.373395 12365 -10831 00000000 46.485476
1059 33.117911 46.559615 112.500687 12365 -10831 00000000 46.485476
1060 33.149160 46.559615 113.623910 12365 -10831 00000000 46.485476
1061 33.180423 46.559615 114.751279 12365 -10831 00000000 46.485476
1062 33.211775 46.559615 115.876639 12365 -10831 00000000 46.485476
1063 33.243115 46.559615 116.999004 12365 -10831 00000000 46.485476
1064 33.274275 46.559615 118.124056 12365 -10831 00000000 46.485476
1065 33.305596 46.559615 119.251725 12365 -10831 00000000 46.485476
1066 33.336784 46.559615 120.375927 12365 -10831 00000000 46.485476
1067 33.367966 46.559615 121.500747 12365 -10831 00000000 46.485476
1068 33.399291 46.559615 122.624056 12365 -10831 00000000 46.485476
1069 33.430463 46.559615 123.751966 12365 -10831 00000000 46.485476
1070 33.461708 46.559615 124.876562 12365 -10831 00000000 46.485476
1071 33.492930 46.559615 126.001648 12365 -10831 00000000 46.485476
1072 33.524171 46.559615 127.126399 12365 -10831 00000000 46.485476
1073 33.555389 46.559615 128.250772 12365 -10831 00000000 46.485476
1074 33.586601 46.559615 129.374554 12365 -10831 00000000 46.485476
1075 33.617889 46.559615 130.499897 12365 -10831 00000000 46.485476
1076 33.649105 46.559615 131.625343 12365 -10831 00000000 46.485476
1077 33.680591 46.559615 132.751957 12365 -10831 00000000 46.485476
1078 33.711780 46.559615 133.876176 12365 -10831 00000000 46.485476
1079 33.743028 46.559615 135.002017 12365 -10831 00000000 46.485476
1080 33.774307 46.559615 136.126150 12365 -10831 00000000 46.485476
1081 33.805546 46.559615 137.251090 12365 -10831 00000000 46.485476
1082 33.836773 46.559615 138.375283 12365 -10831 00000000 46.485476
1083 33.867943 46.559615 139.499167 12365 -10831 00000000 46.485476
1084 33.899165 46.559615 140.625961 12365 -10831 00000000 46.485476
1085 33.930429 46.559615 141.750232 12365 -10831 00000000 46.485476
1086 33.961712 46.559615 142.874906 12365 -10831 00000000 46.485476
1087 33.993012 46.559615 143.998901 12365 -10831 00000000 46.485476
1088 34.024375 46.559615 145.123970 12365 -10831 00000000 46.485476
1089 34.055589 46.559615 146.250841 12365 -10831 00000000 46.485476
1090 34.086807 46.559615 147.374270 12365 -10831 00000000 46.485476
1091 34.118118 46.559615 148.499030 12365 -10831 00000000 46.485476
1092 34.149262 46.559615 149.625661 12365 -10831 00000000 46.485476
1093 34.180512 46.559615 150.750463 12365 -10831 00000000 46.485476
1094 34.211742 46.559615 151.875000 12365 -10831 00000000 46.485476
1095 34.243005 46.559615 152.999863 12365 -10831 00000000 46.485476
1096 34.274221 46.559615 154.124691 12365 -10831 00000000 46.485476
1097 34.305432 46.559615 155.248687 12365 -10831 00000000 46.485476
1098 34.336652 46.559615 156.377197 12365 -10831 00000000 46.485476
1099 34.367957 46.559615 157.501390 12365 -10831 00000000 46.485476
1100 34.399188 46.559615 158.625275 12365 -10831 00000000 46.485476
1101 34.430423 46.559615 159.752154 12365 -10831 00000000 46.485476
1102 34.461782 46.559615 160.876305 12365 -10831 00000000 46.485476
1103 34.493032 46.559615 162.001330 12365 -10831 00000000 46.485476
1104 34.524316 46.559615 163.124125 12365 -10831 00000000 46.485476
1105 34.555559 46.559615 164.248713 12365 -10831 00000000 46.485476
1106 34.586832 46.559615 165.376760 12365 -10831 00000000 46.485476
1107 34.618071 46.559615 166.501382 12365 -10831 00000000 46.485476
1108 34.649292 46.559615 167.624605 12365 -10831 00000000 46.485476
1109 34.680474 46.559615 168.748421 12365 -10831 00000000 46.485476
1110 34.711749 46.559615 169.877137 12365 -10831 00000000 46.485476
1111 34.742902 46.559615 171.002214 12365 -10831 00000000 46.485476
1112 34.774185 46.559615 172.126691 12365 -10831 00000000 46.485476
1113 34.805417 46.559615 173.251330 12365 -10831 00000000 46.485476
1114 34.836649 46.559615 174.375687 12365 -10831 00000000 46.485476
1115 34.867945 46.559615 175.499614 12365 -10831 00000000 46.485476
1116 34.899253 46.559615 176.626339 12365 -10831 00000000 46.485476
1117 34.930614 46.559615 177.750738 12365 -10831 00000000 46.485476
1118 34.961796 46.559615 178.876742 12365 -10831 00000000 46.485476
1119 34.993024 46.559615 179.997374 12365 -10831 00000000 46.485476
1120 35.024247 46.559615 181.125257 12365 -10831 00000000 46.485476
1121 35.055432 46.559615 182.249631 12365 -10831 00000000 46.485476
1122 35.086660 46.559615 183.373953 12365 -10831 00000000 46.485476
1123 35.117966 46.559615 184.500481 12365 -10831 00000000 46.485476
1124 35.149145 46.559615 185.623584 12365 -10831 00000000 46.485476
1125 35.180416 46.559615 186.749597 12365 -10831 00000000 46.485476
1126 35.211617 46.559615 187.877086 12365 -10831 00000000 46.485476
1127 35.242878 46.559615 189.000318 12365 -10831 00000000 46.485476
1128 35.274147 46.559615 190.125481 12365 -10831 00000000 46.485476
1129 35.305397 46.559615 191.249082 12365 -10831 00000000 46.485476
1130 35.336827 46.559615 192.375515 12365 -10831 00000000 46.485476
1131 35.368047 46.559615 193.500678 12365 -10831 00000000 46.485476
1132 35.399285 46.559615 194.626262 12365 -10831 00000000 46.485476
1133 35.430557 46.559615 195.750369 12365 -10831 00000000 46.485476
1134 35.461792 46.559615 196.875017 12365 -10831 00000000 46.485476
1135 35.492937 46.559615 197.997760 12365 -10831 00000000 46.485476
1136 35.524178 46.559615 199.126708 12365 -10831 00000000 46.485476
1137 35.555464 46.559615 200.249597 12365 -10831 00000000 46.485476
1138 35.586641 46.559615 201.373567 12365 -10831 00000000 46.485476
1139 35.617923 46.559615 202.501425 12365 -10831 00000000 46.485476
1140 35.649127 46.559615 203.625060 12365 -10831 00000000 46.485476
1141 35.680388 46.559615 204.749322 12365 -10831 00000000 46.485476
1142 35.711628 46.559615 205.873515 12365 -10831 00000000 46.485476
1143 35.742869 46.559615 206.999262 12365 -10831 00000000 46.485476
1144 35.774287 46.559615 208.126631 12365 -10831 00000000 46.485476
1145 35.805521 46.559615 209.248944 12365 -10831 00000000 46.485476
1146 35.836755 46.559615 210.377163 12365 -10831 00000000 46.485476
1147 35.867999 46.559615 211.501493 12365 -10831 00000000 46.485476
1148 35.899209 46.559615 212.625798 12365 -10831 00000000 46.485476
1149 35.930486 46.559615 213.748575 12365 -10831 00000000 46.485476
1150 35.961722 46.559615 214.875498 12365 -10831 00000000 46.485476
1151 35.992911 46.559615 215.999228 12365 -10831 00000000 46.485476
1152 36.024137 46.559615 217.126708 12365 -10831 00000000 46.485476
1153 36.055403 46.559615 218.251356 12365 -10831 00000000 46.485476
1154 36.086674 46.559615 219.375558 12365 -10831 00000000 46.485476
1155 36.117982 46.559615 220.499717 12365 -10831 00000000 46.485476
1156 36.149204 46.559615 221.625369 12365 -10831 00000000 46.485476
1157 36.180454 46.559615 222.749777 12365 -10831 00000000 46.485476
1158 36.211820 46.559615 223.874957 12365 -10831 00000000 46.485476
1159 36.243044 46.559615 225.002077 12365 -10831 00000000 46.485476
1160 36.274218 46.559615 226.126528 12365 -10831 00000000 46.485476
1161 36.305488 46.559615 227.248481 12365 -10831 00000000 46.485476
1162 36.336737 46.559615 228.373378 12365 -10831 00000000 46.485476
1163 36.367941 46.559615 229.499434 12365 -10831 00000000 46.485476
1164 36.399185 46.559615 230.625154 12365 -10831 00000000 46.485476
1165 36.430413 46.559615 231.752137 12365 -10831 00000000 46.485476
1166 36.461648 46.559615 232.875189 12365 -10831 00000000 46.485476
1167 36.492900 46.559615 234.000815 12365 -10831 00000000 46.485476
1168 36.524153 46.559615 235.125137 12365 -10831 00000000 46.485476
1169 36.555424 46.559615 236.249880 12365 -10831 00000000 46.485476
1170 36.586718 46.559615 237.376210 12365 -10831 00000000 46.485476
1171 36.618078 46.559615 238.499099 12365 -10831 00000000 46.485476
1172 36.649249 46.559615 239.625283 12365 -10831 00000000 46.485476
1173 36.680546 46.559615 240.750635 12365 -10831 00000000 46.485476
1174 36.711762 46.559615 241.875463 12365 -10831 00000000 46.485476
1175 36.742996 46.559615 242.999494 12365 -10831 00000000 46.485476
1176 36.774253 46.559615 244.124717 12365 -10831 00000000 46.485476
1177 36.805415 46.559615 245.248979 12365 -10831 00000000 46.485476
1178 36.836655 46.559615 246.377180 12365 -10831 00000000 46.485476
1179 36.867898 46.559615 247.501305 12365 -10831 00000000 46.485476
1180 36.899208 46.559615 248.623738 12365 -10831 00000000 46.485476
1181 36.930571 46.559615 249.750369 12365 -10831 00000000 46.485476
1182 36.961815 46.559615 250.874700 12365 -10831 00000000 46.485476
1183 36.993136 46.559615 251.997022 12365 -10831 00000000 46.485476
1184 37.024304 46.559615 253.124768 12365 -10831 00000000 46.485476
1185 37.055594 46.559615 254.248944 12365 -10831 00000000 46.485476
1186 37.086815 46.559615 255.377180 12365 -10831 00000000 46.485476
1187 37.118078 46.559615 256.501519 12365 -10831 00000000 46.485476
1188 37.149216 46.559615 257.624434 12365 -10831 00000000 46.485476
1189 37.180473 46.559615 258.749288 12365 -10831 00000000 46.485476
1190 37.211717 46.559615 259.877223 12365 -10831 00000000 46.485476
1191 37.242934 46.559615 260.997786 12365 -10831 00000000 46.485476
1192 37.274240 46.559615 262.126863 12365 -10831 00000000 46.485476
1193 37.305390 46.559615 263.251356 12365 -10831 00000000 46.485476
1194 37.336728 46.559615 264.376167 12365 -10831 00000000 46.485476
1195 37.367955 46.559615 265.500472 12365 -10831 00000000 46.485476
1196 37.399325 46.559615 266.625798 12365 -10831 00000000 46.485476
1197 37.430544 46.559615 267.751039 12365 -10831 00000000 46.485476
1198 37.461806 46.559615 268.876528 12365 -10831 00000000 46.485476
1199 37.493042 46.559615 270.001717 12365 -10831 00000000 46.485476
1200 37.524253 46.559615 271.123429 12365 -10831 00000000 46.485476
1201 37.555503 46.559615 272.251845 12365 -10831 00000000 46.485476
1202 37.586810 46.559615 273.375601 12365 -10831 00000000 46.485476
1203 37.618033 46.559615 274.499640 12365 -10831 00000000 46.485476
1204 37.649262 46.559615 275.625326 12365 -10831 00000000 46.485476
1205 37.680421 46.559615 276.751004 12365 -10831 00000000 46.485476
1206 37.711673 46.559615 277.875206 12365 -10831 00000000 46.485476
1207 37.742897 46.559615 279.000635 12365 -10831 00000000 46.485476
1208 37.774130 46.559615 280.125257 12365 -10831 00000000 46.485476
1209 37.805458 46.559615 281.249176 12365 -10831 00000000 46.485476
1210 37.836782 46.559615 282.376459 12365 -10831 00000000 46.485476
1211 37.868026 46.559615 283.500618 12365 -10831 00000000 46.485476
1212 37.899338 46.559615 284.626142 12365 -10831 00000000 46.485476
1213 37.930550 46.559615 285.750687 12365 -10831 00000000 46.485476
1214 37.961797 46.559615 286.875575 12365 -10831 00000000 46.485476
1215 37.993023 46.559615 288.000875 12365 -10831 00000000 46.485476
1216 38.024258 46.559615 289.124820 12365 -10831 00000000 46.485476
1217 38.055476 46.559615 290.249674 12365 -10831 00000000 46.485476
1218 38.086708 46.559615 291.374416 12365 -10831 00000000 46.485476
1219 38.117896 46.559615 292.502069 12365 -10831 00000000 46.485476
1220 38.149164 46.559615 293.625163 12365 -10831 00000000 46.485476
1221 38.180379 46.559615 294.749888 12365 -10831 00000000 46.485476
1222 38.211715 46.559615 295.876554 12365 -10831 00000000 46.485476
1223 38.242951 46.559615 296.997519 12365 -10831 00000000 46.485476
1224 38.274321 46.559615 298.126399 12365 -10831 00000000 46.485476
1225 38.305511 46.559615 299.250609 12365 -10831 00000000 46.485476
1226 38.336802 46.559615 300.373438 12365 -10831 00000000 46.485476
1227 38.368055 46.559615 301.501184 12365 -10831 00000000 46.485476
1228 38.399268 46.559615 302.624640 12365 -10831 00000000 46.485476
1229 38.430518 46.559615 303.748781 12365 -10831 00000000 46.485476
1230 38.461719 46.559615 304.876588 12365 -10831 00000000 46.485476
1231 38.492953 46.559615 305.999511 12365 -10831 00000000 46.485476
1232 38.524210 46.559615 307.126914 12365 -10831 00000000 46.485476
1233 38.555483 46.559615 308.251485 12365 -10831 00000000 46.485476
1234 38.586653 46.559615 309.375644 12365 -10831 00000000 46.485476
1235 38.617948 46.559615 310.499811 12365 -10831 00000000 46.485476
1236 38.649194 46.559615 311.627026 12365 -10831 00000000 46.485476
1237 38.680417 46.559615 312.751966 12365 -10831 00000000 46.485476
1238 38.711655 46.559615 -46.124082 12365 -10831 00000000 46.485476
1239 38.742988 46.559615 -45.000060 12365 -10831 00000000 46.485476
1240 38.774244 46.559615 -43.875240 12365 -10831 00000000 46.485476
1241 38.805462 46.559615 -42.748910 12365 -10831 00000000 46.485476
1242 38.836696 46.559615 -41.625558 12365 -10831 00000000 46.485476
1243 38.867935 46.559615 -40.499485 12365 -10831 00000000 46.485476
1244 38.899142 46.559615 -39.376322 12365 -10831 00000000 46.485476
1245 38.930451 46.559615 -38.250807 12365 -10831 00000000 46.485476
1246 38.961627 46.559615 -37.126459 12365 -10831 00000000 46.485476
1247 38.992884 46.559615 -35.999296 12365 -10831 00000000 46.485476
1248 39.024085 46.559615 -34.874597 12365 -10831 00000000 46.485476
1249 39.055341 46.559615 -33.749622 12365 -10831 00000000 46.485476
1250 39.086631 46.559615 -32.626184 12365 -10831 00000000 46.485476
1251 39.117890 46.559615 -31.500283 12365 -10831 00000000 46.485476
1252 39.149179 46.559615 -30.376107 12365 -10831 00000000 46.485476
1253 39.180474 46.559615 -29.248584 12365 -10831 00000000 46.485476
1254 39.211747 46.559615 -28.125601 12365 -10831 00000000 46.485476
1255 39.242991 46.559615 -26.999622 12365 -10831 00000000 46.485476
1256 39.274191 46.559615 -25.873901 12365 -10831 00000000 46.485476
1257 39.305409 46.559615 -24.749425 12365 -10831 00000000 46.485476
1258 39.336726 46.559615 -23.623309 12365 -10831 00000000 46.485476
1259 39.367947 46.559615 -22.499777 12365 -10831 00000000 46.485476
1260 39.399098 46.559615 -21.374828 12365 -10831 00000000 46.485476
1261 39.430384 46.559615 -20.250738 12365 -10831 00000000 46.485476
1262 39.461634 46.559615 -19.123936 12365 -10831 00000000 46.485476
1263 39.492888 46.559615 -18.002214 12365 -10831 00000000 46.485476
1264 39.524161 46.559615 -16.876142 12365 -10831 00000000 46.485476
1265 39.555418 46.559615 -15.748618 12365 -10831 00000000 46.485476
1266 39.586774 46.559615 -14.625918 12365 -10831 00000000 46.485476
1267 39.618015 46.559615 -13.501107 12365 -10831 00000000 46.485476
1268 39.649211 46.559615 -12.375798 12365 -10831 00000000 46.485476
1269 39.680514 46.559615 -11.251330 12365 -10831 00000000 46.485476
1270 39.711709 46.559615 -10.125669 12365 -10831 00000000 46.485476
1271 39.742977 46.559615 -9.002506 12365 -10831 00000000 46.485476
1272 39.774175 46.559615 -7.873009 12365 -10831 00000000 46.485476
1273 39.805391 46.559615 -6.750137 12365 -10831 00000000 46.485476
1274 39.836641 46.559615 -5.624588 12365 -10831 00000000 46.485476
1275 39.867937 46.559615 -4.500069 12365 -10831 00000000 46.485476
1276 39.899189 46.559615 -3.373275 12365 -10831 00000000 46.485476
1277 39.930441 46.559615 -2.249185 12365 -10831 00000000 46.485476
1278 39.961621 46.559615 -1.125017 12365 -10831 00000000 46.485476
1279 39.993034 46.559615 -0.002592 12365 -10831 00000000 46.485476
1280 40.024276 46.559615 1.125901 12365 -10831 00000000 46.485476
1281 40.055559 46.559615 2.250772 12365 -10831 00000000 46.485476
1282 40.086751 46.559615 3.375034 12365 -10831 00000000 46.485476
1283 40.118019 46.559615 4.499133 12365 -10831 00000000 46.485476
1284 40.149169 46.559615 5.626202 12365 -10831 00000000 46.485476
1285 40.180416 46.559615 6.750738 12365 -10831 00000000 46.485476
1286 40.211761 46.559615 7.876596 12365 -10831 00000000 46.485476
1287 40.242861 46.559615 9.001133 12365 -10831 00000000 46.485476
1288 40.274115 46.559615 10.125378 12365 -10831 00000000 46.485476
1289 40.305422 46.559615 11.248575 12365 -10831 00000000 46.485476
1290 40.336619 46.559615 12.374039 12365 -10831 00000000 46.485476
1291 40.367804 46.559615 13.501399 12365 -10831 00000000 46.485476
1292 40.399115 46.559615 14.624537 12365 -10831 00000000 46.485476
1293 40.430529 46.559615 15.750875 12365 -10831 00000000 46.485476
1294 40.461732 46.559615 16.874888 12365 -10831 00000000 46.485476
1295 40.493008 46.559615 18.000661 12365 -10831 00000000 46.485476
1296 40.524247 46.559615 19.125472 12365 -10831 00000000 46.485476
1297 40.555534 46.559615 20.249966 12365 -10831 00000000 46.485476
1298 40.586740 46.559615 21.377111 12365 -10831 00000000 46.485476
1299 40.617993 46.559615 22.498472 12365 -10831 00000000 46.485476
1300 40.649207 46.559615 23.624931 12365 -10831 00000000 46.485476
1301 40.680366 46.559615 24.749270 12365 -10831 00000000 46.485476
1302 40.711691 46.559615 25.873601 12365 -10831 00000000 46.485476
1303 40.742941 46.559615 26.999949 12365 -10831 00000000 46.485476
1304 40.774191 46.559615 28.126631 12365 -10831 00000000 46.485476
1305 40.805581 46.559615 29.251390 12365 -10831 00000000 46.485476
1306 40.836760 46.559615 30.375807 12365 -10831 00000000 46.485476
1307 40.868008 46.559615 31.501296 12365 -10831 00000000 46.485476
1308 40.899299 46.559615 32.624391 12365 -10831 00000000 46.485476
1309 40.930480 46.559615 33.749082 12365 -10831 00000000 46.485476
1310 40.961707 46.559615 34.876639 12365 -10831 00000000 46.485476
1311 40.992955 46.559615 35.997717 12365 -10831 00000000 46.485476
1312 41.024249 46.559615 37.126596 12365 -10831 00000000 46.485476
1313 41.055475 46.559615 38.251399 12365 -10831 00000000 46.485476
1314 41.086695 46.559615 39.376004 12365 -10831 00000000 46.485476
1315 41.117883 46.559615 40.499974 12365 -10831 00000000 46.485476
1316 41.149153 46.559615 41.627189 12365 -10831 00000000 46.485476
1317 41.180410 46.559615 42.751854 12365 -10831 00000000 46.485476
1318 41.211641 46.559615 43.875232 12365 -10831 00000000 46.485476
1319 41.243037 46.559615 45.001571 12365 -10831 00000000 46.485476
1320 41.274229 46.559615 46.124777 12365 -10831 00000000 46.485476
1321 41.305474 46.559615 47.251622 12365 -10831 00000000 46.485476
1322 41.336799 46.559615 48.375318 12365 -10831 00000000 46.485476
1323 41.368009 46.559615 49.500712 12365 -10831 00000000 46.485476
1324 41.399175 46.559615 50.623592 12365 -10831 00000000 46.485476
1325 41.430406 46.559615 51.751605 12365 -10831 00000000 46.485476
1326 41.461690 46.559615 52.876056 12365 -10831 00000000 46.485476
1327 41.492913 46.559615 53.997202 12365 -10831 00000000 46.485476
1328 41.524186 46.559615 55.125609 12365 -10831 00000000 46.485476
1329 41.555382 46.559615 56.251013 12365 -10831 00000000 46.485476
1330 41.586660 46.559615 57.374631 12365 -10831 00000000 46.485476
1331 41.617857 46.559615 58.499631 12365 -10831 00000000 46.485476
1332 41.649166 46.559615 59.625266 12365 -10831 00000000 46.485476
1333 41.680531 46.559615 60.748713 12365 -10831 00000000 46.485476
1334 41.711831 46.559615 61.875815 12365 -10831 00000000 46.485476
1335 41.742989 46.559615 63.001167 12365 -10831 00000000 46.485476
1336 41.774242 46.559615 64.125815 12365 -10831 00000000 46.485476
1337 41.805526 46.559615 65.249854 12365 -10831 00000000 61.403755
1338 41.836776 46.559615 66.374588 12365 -10831 00000000 61.403755
1339 41.867992 46.559615 67.499202 12365 -10831 00000000 61.403755
1340 41.899222 46.559615 68.624768 12365 -10831 00000000 61.403755
1341 41.930423 46.668005 69.749854 12366 -10831 00000000 61.403755
1342 41.961690 46.993175 70.873678 12367 -10833 00000000 61.403755
1343 41.992894 47.318346 71.999991 12369 -10834 00000000 61.403755
1344 42.024107 47.751907 73.123498 12370 -10837 00000000 61.403755
1345 42.055523 48.185468 74.251425 12372 -10839 00000000 61.403755
1346 42.086797 48.835809 75.375154 12375 -10842 00000000 61.403755
1347 42.117972 49.160980 76.499751 12376 -10844 00000000 61.403755
1348 42.149250 49.702931 77.624906 12379 -10846 00000000 61.403755
1349 42.180538 50.028101 78.749373 12380 -10848 00000000 61.403755
1350 42.211737 50.570052 79.873730 12383 -10850 00000000 61.403755
1351 42.242976 50.895223 81.000215 12384 -10852 00000000 61.403755
1352 42.274211 51.437174 82.123652 12387 -10854 00000000 61.403755
1353 42.305393 51.762344 83.251923 12388 -10856 00000000 61.403755
1354 42.336627 52.304295 84.376648 12391 -10858 00000000 61.403755
1355 42.367842 52.846246 85.500026 12393 -10861 00000000 61.403755
1356 42.399176 53.063027 86.626287 12394 -10862 00000000 61.403755
1357 42.430335 53.604978 87.748893 12397 -10864 00000000 61.403755
1358 42.461599 54.038539 88.876116 12399 -10866 00000000 61.403755
1359 42.492847 54.580490 90.001064 12401 -10869 00000000 61.403755
1360 42.524281 55.014051 91.124717 12403 -10871 00000000 61.403755
1361 42.555552 55.447611 92.250300 12405 -10873 00000000 61.403755
1362 42.586698 55.881172 93.375781 12407 -10875 00000000 61.403755
1363 42.617913 56.314733 94.501794 12409 -10877 00000000 61.403755
1364 42.649137 56.748294 95.625026 12411 -10879 00000000 61.403755
1365 42.680412 57.181855 96.752120 12413 -10881 00000000 61.403755
1366 42.711652 57.615415 97.876493 12415 -10883 00000000 61.403755
1367 42.742935 58.048976 99.001348 12417 -10885 00000000 61.403755
1368 42.774221 58.482537 100.124665 12419 -10887 00000000 61.403755
1369 42.805440 58.807708 101.250549 12421 -10888 00000000 61.403755
1370 42.836680 59.349659 102.373455 12423 -10891 00000000 61.403755
1371 42.868027 59.783220 103.501287 12425 -10893 00000000 61.403755
1372 42.899180 60.216780 104.624897 12427 -10895 00000000 61.403755
1373 42.930506 60.650341 105.749631 12429 -10897 00000000 61.403755
1374 42.961814 60.975512 106.875635 12431 -10898 00000000 61.403755
1375 42.993061 61.517463 108.000867 12433 -10901 00000000 61.403755
1376 43.024303 61.734243 109.125970 12434 -10902 00000000 61.403755
1377 43.055471 61.951024 110.249365 12435 -10903 00000000 61.403755
1378 43.086672 61.842633 111.373919 12435 -10902 00000000 61.403755
1379 43.117950 61.842633 112.500378 12435 -10902 00000000 61.403755
1380 43.149184 61.842633 113.624734 12435 -10902 00000000 61.403755
1381 43.180395 61.842633 114.751622 12435 -10902 00000000 61.403755
1382 43.211626 61.842633 115.875017 12435 -10902 00000000 61.403755
1383 43.242886 61.842633 117.000549 12435 -10902 00000000 61.403755
1384 43.274075 61.842633 118.124236 12435 -10902 00000000 61.403755
1385 43.305393 61.842633 119.248961 12435 -10902 00000000 61.403755
1386 43.336622 61.842633 120.374296 12435 -10902 00000000 61.403755
1387 43.368009 61.842633 121.499245 12435 -10902 00000000 61.403755
1388 43.399302 61.842633 122.625189 12435 -10902 00000000 61.403755
1389 43.430454 61.842633 123.749442 12435 -10902 00000000 61.403755
1390 43.461763 61.842633 124.874159 12435 -10902 00000000 61.403755
1391 43.492924 61.842633 125.999313 12435 -10902 00000000 61.403755
1392 43.524234 61.842633 127.123661 12435 -10902 00000000 61.403755
1393 43.555419 61.842633 128.252129 12435 -10902 00000000 61.403755
1394 43.586618 61.842633 129.376021 12435 -10902 00000000 61.403755
1395 43.617848 61.842633 130.500627 12435 -10902 00000000 61.403755
1396 43.649094 61.842633 131.623481 12435 -10902 00000000 61.403755
1397 43.680399 61.842633 132.749022 12435 -10902 00000000 61.403755
1398 43.711839 61.842633 133.874030 12435 -10902 00000000 61.403755
1399 43.743057 61.842633 134.999562 12435 -10902 00000000 61.403755
1400 43.774361 61.842633 136.124219 12435 -10902 00000000 61.403755
1401 43.805611 61.842633 137.251039 12435 -10902 00000000 61.403755
1402 43.836769 61.842633 138.376013 12435 -10902 00000000 61.403755
1403 43.867982 61.842633 139.500309 12435 -10902 00000000 61.403755
1404 43.899202 61.842633 140.627017 12435 -10902 00000000 61.403755
1405 43.930488 61.842633 141.751854 12435 -10902 00000000 61.403755
1406 43.961698 61.842633 142.876828 12435 -10902 00000000 61.403755
1407 43.992933 61.842633 144.001459 12435 -10902 00000000 61.403755
1408 44.024192 61.842633 145.126408 12435 -10902 00000000 61.403755
1409 44.055351 61.842633 146.250661 12435 -10902 00000000 61.403755
1410 44.086599 61.842633 147.375249 12435 -10902 00000000 61.403755
1411 44.117908 61.842633 148.499373 12435 -10902 00000000 61.403755
1412 44.149144 61.842633 149.625738 12435 -10902 00000000 61.403755
1413 44.180506 61.842633 150.749631 12435 -10902 00000000 61.403755
1414 44.211739 61.842633 151.874373 12435 -10902 00000000 61.403755
1415 44.242993 61.842633 153.001296 12435 -10902 00000000 61.403755
1416 44.274293 61.842633 154.125747 12435 -10902 00000000 61.403755
1417 44.305524 61.842633 155.250498 12435 -10902 00000000 61.403755
1418 44.336775 61.842633 156.374442 12435 -10902 00000000 61.403755
1419 44.367919 61.842633 157.498919 12435 -10902 00000000 61.403755
1420 44.399163 61.842633 158.625867 12435 -10902 00000000 61.403755
1421 44.430395 61.842633 159.750232 12435 -10902 00000000 61.403755
1422 44.461641 61.842633 160.874597 12435 -10902 00000000 61.403755
1423 44.492935 61.842633 161.999451 12435 -10902 00000000 61.403755
1424 44.524107 61.842633 163.123781 12435 -10902 00000000 61.403755
1425 44.555418 61.842633 164.251571 12435 -10902 00000000 61.403755
1426 44.586617 61.842633 165.376588 12435 -10902 00000000 61.403755
1427 44.617977 61.842633 166.500034 12435 -10902 00000000 61.403755
1428 44.649210 61.842633 167.623627 12435 -10902 00000000 61.403755
1429 44.680465 61.842633 168.750146 12435 -10902 00000000 61.403755
1430 44.711737 61.842633 169.874554 12435 -10902 00000000 61.403755
1431 44.742995 61.842633 170.999691 12435 -10902 00000000 61.403755
1432 44.774226 61.842633 172.124116 12435 -10902 00000000 61.403755
1433 44.805401 61.842633 173.248412 12435 -10902 00000000 61.403755
1434 44.836661 61.842633 174.377146 12435 -10902 00000000 61.403755
1435 44.867906 61.842633 175.501639 12435 -10902 00000000 61.403755
1436 44.899095 61.842633 176.624107 12435 -10902 00000000 61.403755
1437 44.930374 61.842633 177.748601 12435 -10902 00000000 61.403755
1438 44.961582 61.842633 178.876657 12435 -10902 00000000 61.403755
1439 44.992844 61.842633 180.002026 12435 -10902 00000000 61.403755
1440 45.024194 61.842633 181.125446 12435 -10902 00000000 61.403755
1441 45.055535 61.842633 182.249974 12435 -10902 00000000 61.403755
1442 45.086738 61.842633 183.376983 12435 -10902 00000000 61.403755
1443 45.117902 61.842633 184.499279 12435 -10902 00000000 61.403755
1444 45.149176 61.842633 185.624004 12435 -10902 00000000 61.403755
1445 45.180366 61.842633 186.750257 12435 -10902 00000000 61.403755
1446 45.211700 61.842633 187.873876 12435 -10902 00000000 61.403755
1447 45.242834 61.842633 189.000463 12435 -10902 00000000 61.403755
1448 45.274151 61.842633 190.123644 12435 -10902 00000000 61.403755
1449 45.305358 61.842633 191.251785 12435 -10902 00000000 61.403755
1450 45.336550 61.842633 192.374236 12435 -10902 00000000 61.403755
1451 45.367838 61.842633 193.500326 12435 -10902 00000000 61.403755
1452 45.399050 61.842633 194.626253 12435 -10902 00000000 61.403755
1453 45.430340 61.842633 195.750695 12435 -10902 00000000 61.403755
1454 45.461550 61.842633 196.875343 12435 -10902 00000000 61.403755
1455 45.492969 61.842633 197.998798 12435 -10902 00000000 61.403755
1456 45.524190 61.842633 199.123429 12435 -10902 00000000 61.403755
1457 45.555480 61.842633 200.248498 12435 -10902 00000000 61.403755
1458 45.586705 61.842633 201.374468 12435 -10902 00000000 61.403755
1459 45.617921 61.842633 202.499502 12435 -10902 00000000 61.403755
1460 45.649174 61.842633 203.624571 12435 -10902 00000000 61.403755
1461 45.680419 61.842633 204.749296 12435 -10902 00000000 61.403755
1462 45.711635 61.842633 205.875824 12435 -10902 00000000 61.403755
1463 45.742848 61.842633 207.000978 12435 -10902 00000000 61.403755
1464 45.774093 61.842633 208.124262 12435 -10902 00000000 61.403755
1465 45.805279 61.842633 209.248833 12435 -10902 00000000 61.403755
1466 45.836613 61.842633 210.377000 12435 -10902 00000000 61.403755
1467 45.867802 61.842633 211.501356 12435 -10902 00000000 61.403755
1468 45.899104 61.842633 212.623755 12435 -10902 00000000 61.403755
1469 45.930280 61.842633 213.751408 12435 -10902 00000000 61.403755
1470 45.961676 61.842633 214.875669 12435 -10902 00000000 61.403755
1471 45.992919 61.842633 216.000481 12435 -10902 00000000 61.403755
1472 46.024126 61.842633 217.123369 12435 -10902 00000000 61.403755
1473 46.055429 61.842633 218.251725 12435 -10902 00000000 61.403755
1474 46.086608 61.842633 219.374331 12435 -10902 00000000 61.403755
1475 46.117888 61.842633 220.500824 12435 -10902 00000000 61.403755
1476 46.149079 61.842633 221.624846 12435 -10902 00000000 61.403755
1477 46.180385 61.842633 222.748489 12435 -10902 00000000 61.403755
1478 46.211618 61.842633 223.876313 12435 -10902 00000000 61.403755
1479 46.242842 61.842633 225.002043 12435 -10902 00000000 61.403755
1480 46.274034 61.842633 226.126210 12435 -10902 00000000 61.403755
1481 46.305333 61.842633 227.250738 12435 -10902 00000000 61.403755
1482 46.336590 61.842633 228.374451 12435 -10902 00000000 61.403755
1483 46.367947 61.842633 229.499030 12435 -10902 00000000 61.403755
1484 46.399225 61.842633 230.623807 12435 -10902 00000000 61.403755
1485 46.430423 61.842633 231.751966 12435 -10902 00000000 61.403755
1486 46.461694 61.842633 232.876176 12435 -10902 00000000 61.403755
1487 46.492954 61.842633 234.000961 12435 -10902 00000000 61.403755
1488 46.524167 61.842633 235.125541 12435 -10902 00000000 61.403755
1489 46.555384 61.842633 236.250403 12435 -10902 00000000 61.403755
1490 46.586601 61.842633 237.376039 12435 -10902 00000000 61.403755
1491 46.617853 61.842633 238.499760 12435 -10902 00000000 61.403755
1492 46.649118 61.842633 239.624571 12435 -10902 00000000 61.403755
1493 46.680366 61.842633 240.749391 12435 -10902 00000000 61.403755
1494 46.711636 61.842633 241.874150 12435 -10902 00000000 61.403755
1495 46.742877 61.842633 243.000506 12435 -10902 00000000 61.403755
1496 46.774164 61.842633 244.126588 12435 -10902 00000000 61.403755
1497 46.805458 61.842633 245.250644 12435 -10902 00000000 61.403755
1498 46.836663 61.842633 246.374176 12435 -10902 00000000 61.403755
1499 46.867930 61.842633 247.498618 12435 -10902 00000000 61.403755
1500 46.899176 61.842633 248.625644 12435 -10902 00000000 61.403755
1501 46.930415 61.842633 249.749949 12435 -10902 00000000 61.403755
1502 46.961674 61.842633 250.874176 12435 -10902 00000000 61.403755
1503 46.992888 61.842633 251.999725 12435 -10902 00000000 61.403755
1504 47.024129 61.842633 253.124176 12435 -10902 00000000 61.403755
1505 47.055346 61.842633 254.248532 12435 -10902 00000000 61.403755
1506 47.086593 61.842633 255.376287 12435 -10902 00000000 61.403755
1507 47.117833 61.842633 256.501725 12435 -10902 00000000 61.403755
1508 47.149094 61.842633 257.623876 12435 -10902 00000000 61.403755
1509 47.180345 61.842633 258.748369 12435 -10902 00000000 61.403755
1510 47.211736 61.842633 259.874331 12435 -10902 00000000 61.403755
1511 47.243000 61.842633 260.999099 12435 -10902 00000000 61.403755
1512 47.274244 61.842633 262.124674 12435 -10902 00000000 61.403755
1513 47.305404 61.842633 263.248755 12435 -10902 00000000 61.403755
1514 47.336629 61.842633 264.376837 12435 -10902 00000000 61.403755
1515 47.367917 61.842633 265.501605 12435 -10902 00000000 61.403755
1516 47.399144 61.842633 266.624288 12435 -10902 00000000 61.403755
1517 47.430339 61.842633 267.748627 12435 -10902 00000000 61.403755
1518 47.461586 61.842633 268.877120 12435 -10902 00000000 61.403755
1519 47.492888 61.842633 269.996799 12435 -10902 00000000 61.403755
1520 47.524110 61.842633 271.127206 12435 -10902 00000000 61.403755
1521 47.555320 61.842633 272.250978 12435 -10902 00000000 61.403755
1522 47.586682 61.842633 273.374425 12435 -10902 00000000 61.403755
1523 47.617973 61.842633 274.499820 12435 -10902 00000000 61.403755
1524 47.649242 61.842633 275.624408 12435 -10902 00000000 61.403755
1525 47.680452 61.842633 276.748704 12435 -10902 00000000 61.403755
1526 47.711711 61.842633 277.876287 12435 -10902 00000000 61.403755
1527 47.742988 61.842633 278.997545 12435 -10902 00000000 61.403755
1528 47.774192 61.842633 280.126596 12435 -10902 00000000 61.403755
1529 47.805378 61.842633 281.250781 12435 -10902 00000000 61.403755
1530 47.836642 61.842633 282.375249 12435 -10902 00000000 61.403755
1531 47.867880 61.842633 283.499708 12435 -10902 00000000 61.403755
1532 47.899104 61.842633 284.626785 12435 -10902 00000000 61.403755
1533 47.930341 61.842633 285.750515 12435 -10902 00000000 61.403755
1534 47.961577 61.842633 286.875352 12435 -10902 00000000 61.403755
1535 47.992834 61.842633 288.000987 12435 -10902 00000000 61.403755
1536 48.024238 61.842633 289.125120 12435 -10902 00000000 61.403755
1537 48.055419 61.842633 290.252197 12435 -10902 00000000 61.403755
1538 48.086726 61.842633 291.374914 12435 -10902 00000000 61.403755
1539 48.117995 61.842633 292.500369 12435 -10902 00000000 61.403755
1540 48.149177 61.842633 293.626433 12435 -10902 00000000 61.403755
1541 48.180386 61.842633 294.750841 12435 -10902 00000000 61.403755
1542 48.211603 61.842633 295.874708 12435 -10902 00000000 61.403755
1543 48.242922 61.842633 297.001622 12435 -10902 00000000 61.403755
1544 48.274056 61.842633 298.124760 12435 -10902 00000000 61.403755
1545 48.305355 61.842633 -60.749974 12435 -10902 00000000 61.403755
1546 48.336561 61.842633 -59.626013 12435 -10902 00000000 61.403755
1547 48.367821 61.842633 -58.498575 12435 -10902 00000000 61.403755
1548 48.399119 61.842633 -57.373009 12435 -10902 00000000 61.403755
1549 48.430385 61.842633 -56.251064 12435 -10902 00000000 61.403755
1550 48.461674 61.842633 -55.122974 12435 -10902 00000000 61.403755
1551 48.493004 61.842633 -53.999545 12435 -10902 00000000 61.403755
1552 48.524276 61.842633 -52.876279 12435 -10902 00000000 61.403755
1553 48.555420 61.842633 -51.751519 12435 -10902 00000000 61.403755
1554 48.586705 61.842633 -50.623129 12435 -10902 00000000 61.403755
1555 48.617949 61.842633 -49.498867 12435 -10902 00000000 61.403755
1556 48.649145 61.842633 -48.372828 12435 -10902 00000000 61.403755
1557 48.680362 61.842633 -47.250978 12435 -10902 00000000 61.403755
1558 48.711675 61.842633 -46.122992 12435 -10902 00000000 61.403755
1559 48.742866 61.842633 -45.002764 12435 -10902 00000000 61.403755
1560 48.774050 61.842633 -43.873258 12435 -10902 00000000 61.403755
1561 48.805364 61.842633 -42.748275 12435 -10902 00000000 61.403755
1562 48.836620 61.842633 -41.625429 12435 -10902 00000000 61.403755
1563 48.867857 61.842633 -40.500790 12435 -10902 00000000 61.403755
1564 48.899156 61.842633 -39.373927 12435 -10902 00000000 61.403755
1565 48.930449 61.842633 -38.250601 12435 -10902 00000000 61.403755
1566 48.961709 61.842633 -37.123558 12435 -10902 00000000 61.403755
1567 48.992966 61.842633 -35.999013 12435 -10902 00000000 61.403755
1568 49.024103 61.842633 -34.875129 12435 -10902 00000000 61.403755
1569 49.055388 61.842633 -33.748867 12435 -10902 00000000 61.403755
1570 49.086568 61.842633 -32.622871 12435 -10902 00000000 61.403755
1571 49.117838 61.842633 -31.500764 12435 -10902 00000000 61.403755
1572 49.149071 61.842633 -30.373464 12435 -10902 00000000 61.403755
1573 49.180300 61.842633 -29.249803 12435 -10902 00000000 61.403755
1574 49.211554 61.842633 -28.124880 12435 -10902 00000000 61.403755
1575 49.242815 61.842633 -26.999579 12435 -10902 00000000 61.403755
1576 49.274100 61.842633 -25.875772 12435 -10902 00000000 61.403755
1577 49.305280 61.842633 -24.751639 12435 -10902 00000000 61.403755
1578 49.336651 61.842633 -23.624176 12435 -10902 00000000 61.403755
1579 49.367976 61.842633 -22.498172 12435 -10902 00000000 61.403755
1580 49.399186 61.842633 -21.374253 12435 -10902 00000000 61.403755
1581 49.430346 61.842633 -20.249313 12435 -10902 00000000 61.403755
1582 49.461620 61.842633 -19.124030 12435 -10902 00000000 61.403755
1583 49.492839 61.842633 -18.002223 12435 -10902 00000000 61.403755
1584 49.524048 61.842633 -16.875524 12435 -10902 00000000 61.403755
1585 49.555303 61.842633 -15.750652 12435 -10902 00000000 61.403755
1586 49.586556 61.842633 -14.622914 12435 -10902 00000000 61.403755
1587 49.617831 61.842633 -13.498816 12435 -10902 00000000 61.403755
1588 49.649048 61.842633 -12.375807 12435 -10902 00000000 61.403755
1589 49.680314 61.842633 -11.251039 12435 -10902 00000000 61.403755
1590 49.711537 61.842633 -10.122906 12435 -10902 00000000 61.403755
1591 49.742946 61.842633 -9.002403 12435 -10902 00000000 61.403755
1592 49.774181 61.842633 -7.874751 12435 -10902 00000000 61.403755
1593 49.805463 61.842633 -6.751047 12435 -10902 00000000 61.403755
1594 49.836691 61.842633 -5.623275 12435 -10902 00000000 61.403755
1595 49.867881 61.842633 -4.498747 12435 -10902 00000000 61.403755
1596 49.899146 61.842633 -3.376090 12435 -10902 00000000 61.403755
1597 49.930382 61.842633 -2.251528 12435 -10902 00000000 61.403755
1598 49.961544 61.842633 -1.123172 12435 -10902 00000000 61.403755
1599 49.992796 61.842633 -0.002180 12435 -10902 00000000 61.403755
1600 50.024012 61.842633 1.123850 12435 -10902 00000000 61.403755
1601 50.055370 61.842633 2.251622 12435 -10902 00000000 61.403755
1602 50.086600 61.842633 3.376657 12435 -10902 00000000 61.403755
1603 50.117812 61.842633 4.499167 12435 -10902 00000000 61.403755
1604 50.149161 61.842633 5.625687 12435 -10902 00000000 61.403755
1605 50.180438 61.842633 6.748429 12435 -10902 00000000 61.403755
1606 50.211730 61.842633 7.876708 12435 -10902 00000000 61.403755
1607 50.242940 61.842633 8.997708 12435 -10902 00000000 61.403755
1608 50.274182 61.842633 10.126751 12435 -10902 00000000 61.403755
1609 50.305358 61.842633 11.250661 12435 -10902 00000000 61.403755
1610 50.336635 61.842633 12.375455 12435 -10902 00000000 61.403755
1611 50.367846 61.842633 13.499597 12435 -10902 00000000 61.403755
1612 50.399114 61.842633 14.626708 12435 -10902 00000000 61.403755
1613 50.430344 61.842633 15.750558 12435 -10902 00000000 61.403755
1614 50.461564 61.842633 16.875395 12435 -10902 00000000 61.403755
1615 50.492750 61.842633 17.999923 12435 -10902 00000000 61.403755
1616 50.524020 61.842633 19.124837 12435 -10902 00000000 61.403755
1617 50.555212 61.842633 20.249691 12435 -10902 00000000 61.403755
1618 50.586559 61.842633 21.376605 12435 -10902 00000000 61.403755
1619 50.617915 61.842633 22.499142 12435 -10902 00000000 61.403755
1620 50.649171 61.842633 23.625936 12435 -10902 00000000 61.403755
1621 50.680426 61.842633 24.751485 12435 -10902 00000000 61.403755
1622 50.711696 61.842633 25.874700 12435 -10902 00000000 61.403755
1623 50.742937 61.842633 27.000524 12435 -10902 00000000 61.403755
1624 50.774143 61.842633 28.124442 12435 -10902 00000000 61.403755
1625 50.805389 61.842633 29.249228 12435 -10902 00000000 61.403755
1626 50.836576 61.842633 30.377111 12435 -10902 00000000 61.403755
1627 50.867808 61.842633 31.501854 12435 -10902 00000000 61.403755
1628 50.899054 61.842633 32.624803 12435 -10902 00000000 61.403755
1629 50.930308 61.842633 33.749468 12435 -10902 00000000 61.403755
1630 50.961717 61.842633 34.875326 12435 -10902 00000000 61.403755
1631 50.992975 61.842633 36.001485 12435 -10902 00000000 61.403755
1632 51.024239 61.842633 37.124013 12435 -10902 00000000 61.403755
1633 51.055416 61.842633 38.248661 12435 -10902 00000000 61.403755
1634 51.086674 61.842633 39.377043 12435 -10902 00000000 61.403755
1635 51.117920 61.842633 40.501536 12435 -10902 00000000 61.403755
1636 51.149115 61.842633 41.624236 12435 -10902 00000000 61.403755
1637 51.180393 61.842633 42.748833 12435 -10902 00000000 61.403755
1638 51.211653 61.842633 43.873592 12435 -10902 00000000 61.403755
1639 51.242891 61.842633 44.997648 12435 -10902 00000000 61.403755
1640 51.274107 61.842633 46.123378 12435 -10902 00000000 61.403755
1641 51.305282 61.842633 47.251193 12435 -10902 00000000 61.403755
1642 51.336611 61.842633 48.376373 12435 -10902 00000000 61.403755
1643 51.367855 61.842633 49.500172 12435 -10902 00000000 61.403755
1644 51.399170 61.842633 50.626639 12435 -10902 00000000 61.403755
1645 51.430409 61.842633 51.750335 12435 -10902 00000000 61.403755
1646 51.461679 61.842633 52.876966 12435 -10902 00000000 61.403755
1647 51.492920 61.842633 53.999597 12435 -10902 00000000 61.403755
1648 51.524204 61.842633 55.123395 12435 -10902 00000000 61.403755
1649 51.555440 61.842633 56.251751 12435 -10902 00000000 61.403755
1650 51.586650 61.842633 57.375721 12435 -10902 00000000 61.403755
1651 51.617867 61.842633 58.500017 12435 -10902 00000000 61.403755
1652 51.649140 61.842633 59.623790 12435 -10902 00000000 61.403755
1653 51.680276 61.842633 60.752034 12435 -10902 00000000 61.403755
1654 51.711593 61.842633 61.875601 12435 -10902 00000000 61.403755
1655 51.742838 61.842633 63.001837 12435 -10902 00000000 61.403755
1656 51.774100 61.842633 64.126245 12435 -10902 00000000 61.403755
1657 51.805264 61.842633 65.249700 12435 -10902 00000000 61.403755
1658 51.836684 61.842633 66.377146 12435 -10902 00000000 61.403755
1659 51.867939 61.842633 67.500515 12435 -10902 00000000 58.593575
1660 51.899194 61.842633 68.626682 12435 -10902 00000000 58.593575
1661 51.930396 61.842633 69.750781 12435 -10902 00000000 58.593575
1662 51.961684 61.625853 70.875515 12434 -10901 00000000 58.593575
1663 51.992948 61.517463 72.000275 12433 -10901 00000000 58.593575
1664 52.024155 61.300682 73.125558 12431 -10901 00000000 58.593575
1665 52.055354 61.083902 74.250352 12430 -10900 00000000 58.593575
1666 52.086567 60.650341 75.374528 12428 -10898 00000000 58.593575
1667 52.117927 60.216780 76.500609 12426 -10896 00000000 58.593575
1668 52.149060 59.674829 77.625232 12424 -10893 00000000 58.593575
1669 52.180338 59.132878 78.749777 12421 -10891 00000000 58.593575
1670 52.211574 58.699318 79.873781 12420 -10888 00000000 58.593575
1671 52.242923 58.374147 80.997743 12418 -10887 00000000 58.593575
1672 52.274121 58.048976 82.123584 12416 -10886 00000000 58.593575
1673 52.305444 57.940586 83.249760 12416 -10885 00000000 58.593575
1674 52.336701 57.940586 84.376905 12416 -10885 00000000 58.593575
1675 52.367901 58.048976 85.500936 12417 -10885 00000000 58.593575
1676 52.399127 58.157367 86.624734 12417 -10886 00000000 58.593575
1677 52.430362 58.265757 87.748661 12418 -10886 00000000 58.593575
1678 52.461530 58.265757 88.876699 12418 -10886 00000000 58.593575
1679 52.492831 58.265757 89.999751 12418 -10886 00000000 58.593575
1680 52.524093 58.265757 91.125970 12418 -10886 00000000 58.593575
1681 52.555285 58.265757 92.251262 12418 -10886 00000000 58.593575
1682 52.586527 58.265757 93.375412 12418 -10886 00000000 58.593575
1683 52.617744 58.265757 94.500292 12418 -10886 00000000 58.593575
1684 52.648990 58.265757 95.626665 12418 -10886 00000000 58.593575
1685 52.680354 58.265757 96.750283 12418 -10886 00000000 58.593575
1686 52.711557 58.265757 97.876296 12418 -10886 00000000 58.593575
1687 52.742930 58.265757 98.999820 12418 -10886 00000000 58.593575
1688 52.774156 58.265757 100.126279 12418 -10886 00000000 58.593575
1689 52.805399 58.265757 101.251013 12418 -10886 00000000 58.593575
1690 52.836611 58.265757 102.374468 12418 -10886 00000000 58.593575
1691 52.867849 58.265757 103.500755 12418 -10886 00000000 58.593575
1692 52.899056 58.265757 104.626142 12418 -10886 00000000 58.593575
1693 52.930269 58.265757 105.750069 12418 -10886 00000000 58.593575
1694 52.961540 58.265757 106.875163 12418 -10886 00000000 58.593575
1695 52.992786 58.265757 108.000257 12418 -10886 00000000 58.593575
1696 53.024000 58.265757 109.124700 12418 -10886 00000000 58.593575
1697 53.055317 58.265757 110.249476 12418 -10886 00000000 58.593575
1698 53.086506 58.265757 111.373773 12418 -10886 00000000 58.593575
1699 53.117730 58.265757 112.501227 12418 -10886 00000000 58.593575
1700 53.149119 58.265757 113.624107 12418 -10886 00000000 58.593575
1701 53.180368 58.265757 114.750790 12418 -10886 00000000 58.593575
1702 53.211696 58.265757 115.874545 12418 -10886 00000000 58.593575
1703 53.242901 58.265757 117.000077 12418 -10886 00000000 58.593575
1704 53.274126 58.265757 118.124957 12418 -10886 00000000 58.593575
1705 53.305351 58.265757 119.250927 12418 -10886 00000000 58.593575
1706 53.336534 58.265757 120.373532 12418 -10886 00000000 58.593575
1707 53.367779 58.265757 121.501631 12418 -10886 00000000 58.593575
1708 53.399048 58.265757 122.624914 12418 -10886 00000000 58.593575
1709 53.430315 58.265757 123.748541 12418 -10886 00000000 58.593575
1710 53.461525 58.265757 124.873481 12418 -10886 00000000 58.593575
1711 53.492822 58.265757 125.997580 12418 -10886 00000000 58.593575
1712 53.523985 58.265757 127.123678 12418 -10886 00000000 58.593575
1713 53.555428 58.265757 128.250154 12418 -10886 00000000 58.593575
1714 53.586655 58.265757 129.376622 12418 -10886 00000000 58.593575
1715 53.617890 58.265757 130.501193 12418 -10886 00000000 58.593575
1716 53.649130 58.265757 131.623627 12418 -10886 00000000 58.593575
1717 53.680390 58.265757 132.748438 12418 -10886 00000000 58.593575
1718 53.711652 58.265757 133.876322 12418 -10886 00000000 58.593575
1719 53.742831 58.265757 135.001931 12418 -10886 00000000 58.593575
1720 53.774082 58.265757 136.126399 12418 -10886 00000000 58.593575
1721 53.805269 58.265757 137.251296 12418 -10886 00000000 58.593575
1722 53.836586 58.265757 138.375455 12418 -10886 00000000 58.593575
1723 53.867773 58.265757 139.499039 12418 -10886 00000000 58.593575
1724 53.899024 58.265757 140.627017 12418 -10886 00000000 58.593575
1725 53.930266 58.265757 141.750996 12418 -10886 00000000 58.593575
1726 53.961475 58.265757 142.874957 12418 -10886 00000000 58.593575
1727 53.992963 58.265757 143.997571 12418 -10886 00000000 58.593575
1728 54.024116 58.265757 145.127034 12418 -10886 00000000 58.593575
1729 54.055382 58.265757 146.251116 12418 -10886 00000000 58.593575
1730 54.086633 58.265757 147.375154 12418 -10886 00000000 58.593575
1731 54.117836 58.265757 148.499605 12418 -10886 00000000 58.593575
1732 54.149063 58.265757 149.626717 12418 -10886 00000000 58.593575
1733 54.180347 58.265757 150.750884 12418 -10886 00000000 58.593575
1734 54.211541 58.265757 151.875815 12418 -10886 00000000 58.593575
1735 54.242782 58.265757 153.001124 12418 -10886 00000000 58.593575
1736 54.274064 58.265757 154.125669 12418 -10886 00000000 58.593575
1737 54.305335 58.265757 155.249099 12418 -10886 00000000 58.593575
1738 54.336508 58.265757 156.376545 12418 -10886 00000000 58.593575
1739 54.367962 58.265757 157.500918 12418 -10886 00000000 58.593575
1740 54.399189 58.265757 158.625936 12418 -10886 00000000 58.593575
1741 54.430400 58.265757 159.749459 12418 -10886 00000000 58.593575
1742 54.461650 58.265757 160.874150 12418 -10886 00000000 58.593575
1743 54.492944 58.265757 162.000738 12418 -10886 00000000 58.593575
1744 54.524107 58.265757 163.124734 12418 -10886 00000000 58.593575
1745 54.555325 58.265757 164.249331 12418 -10886 00000000 58.593575
1746 54.586552 58.265757 165.377146 12418 -10886 00000000 58.593575
1747 54.617806 58.265757 166.501425 12418 -10886 00000000 58.593575
1748 54.649022 58.265757 167.624348 12418 -10886 00000000 58.593575
1749 54.680269 58.265757 168.748979 12418 -10886 00000000 58.593575
1750 54.711520 58.265757 169.876991 12418 -10886 00000000 58.593575
1751 54.742790 58.265757 170.997296 12418 -10886 00000000 58.593575
1752 54.774145 58.265757 172.123472 12418 -10886 00000000 58.593575
1753 54.805359 58.265757 173.250352 12418 -10886 00000000 58.593575
1754 54.836612 58.265757 174.376828 12418 -10886 00000000 58.593575
1755 54.867867 58.265757 175.501760 12418 -10886 00000000 58.593575
1756 54.899119 58.265757 176.624125 12418 -10886 00000000 58.593575
1757 54.930357 58.265757 177.748944 12418 -10886 00000000 58.593575
1758 54.961648 58.265757 178.873558 12418 -10886 00000000 58.593575
1759 54.992823 58.265757 179.999828 12418 -10886 00000000 58.593575
1760 55.024025 58.265757 181.126923 12418 -10886 00000000 58.593575
1761 55.055299 58.265757 182.251708 12418 -10886 00000000 58.593575
1762 55.086503 58.265757 183.375841 12418 -10886 00000000 58.593575
1763 55.117749 58.265757 184.500687 12418 -10886 00000000 58.593575
1764 55.149017 58.265757 185.626905 12418 -10886 00000000 58.593575
1765 55.180319 58.265757 186.749657 12418 -10886 00000000 58.593575
1766 55.211515 58.265757 187.875034 12418 -10886 00000000 58.593575
1767 55.242875 58.265757 188.999365 12418 -10886 00000000 58.593575
1768 55.274089 58.265757 190.124751 12418 -10886 00000000 58.593575
1769 55.305342 58.265757 191.250635 12418 -10886 00000000 58.593575
1770 55.336584 58.265757 192.373730 12418 -10886 00000000 58.593575
1771 55.367835 58.265757 193.500953 12418 -10886 00000000 58.593575
1772 55.399103 58.265757 194.626116 12418 -10886 00000000 58.593575
1773 55.430243 58.265757 195.749983 12418 -10886 00000000 58.593575
1774 55.461566 58.265757 196.874391 12418 -10886 00000000 58.593575
1775 55.492731 58.265757 197.998927 12418 -10886 00000000 58.593575
1776 55.524021 58.265757 199.123421 12418 -10886 00000000 58.593575
1777 55.555305 58.265757 200.250438 12418 -10886 00000000 58.593575
1778 55.586556 58.265757 201.374279 12418 -10886 00000000 58.593575
1779 55.617821 58.265757 202.501845 12418 -10886 00000000 58.593575
1780 55.649045 58.265757 203.623910 12418 -10886 00000000 58.593575
1781 55.680403 58.265757 204.751966 12418 -10886 00000000 58.593575
1782 55.711602 58.265757 205.877232 12418 -10886 00000000 58.593575
1783 55.742826 58.265757 207.000764 12418 -10886 00000000 58.593575
1784 55.774059 58.265757 208.126313 12418 -10886 00000000 58.593575
1785 55.805278 58.265757 209.251039 12418 -10886 00000000 58.593575
1786 55.836597 58.265757 210.373524 12418 -10886 00000000 58.593575
1787 55.867814 58.265757 211.500249 12418 -10886 00000000 58.593575
1788 55.899045 58.265757 212.623687 12418 -10886 00000000 58.593575
1789 55.930295 58.265757 213.749142 12418 -10886 00000000 58.593575
1790 55.961543 58.265757 214.873618 12418 -10886 00000000 58.593575
1791 55.992764 58.265757 215.997751 12418 -10886 00000000 58.593575
1792 56.024015 58.265757 217.127180 12418 -10886 00000000 58.593575
1793 56.055281 58.265757 218.248824 12418 -10886 00000000 58.593575
1794 56.086491 58.265757 219.375867 12418 -10886 00000000 58.593575
1795 56.117881 58.265757 220.499700 12418 -10886 00000000 58.593575
1796 56.149175 58.265757 221.625034 12418 -10886 00000000 58.593575
1797 56.180398 58.265757 222.749133 12418 -10886 00000000 58.593575
1798 56.211635 58.265757 223.877086 12418 -10886 00000000 58.593575
1799 56.242867 58.265757 225.002120 12418 -10886 00000000 58.593575
1800 56.274071 58.265757 226.124820 12418 -10886 00000000 58.593575
1801 56.305293 58.265757 227.251794 12418 -10886 00000000 58.593575
1802 56.336495 58.265757 228.375558 12418 -10886 00000000 58.593575
1803 56.367767 58.265757 229.500112 12418 -10886 00000000 58.593575
1804 56.398957 58.265757 230.624348 12418 -10886 00000000 58.593575
1805 56.430225 58.265757 231.751202 12418 -10886 00000000 58.593575
1806 56.461456 58.265757 232.875326 12418 -10886 00000000 58.593575
1807 56.492779 58.265757 233.997511 12418 -10886 00000000 58.593575
1808 56.524170 58.265757 235.125549 12418 -10886 00000000 58.593575
1809 56.555404 58.265757 236.249099 12418 -10886 00000000 58.593575
1810 56.586575 58.265757 237.375403 12418 -10886 00000000 58.593575
1811 56.617876 58.265757 238.499820 12418 -10886 00000000 58.593575
1812 56.649062 58.265757 239.626039 12418 -10886 00000000 58.593575
1813 56.680362 58.265757 240.750060 12418 -10886 00000000 58.593575
1814 56.711521 58.265757 241.877146 12418 -10886 00000000 58.593575
1815 56.742805 58.265757 243.000644 12418 -10886 00000000 58.593575
1816 56.774059 58.265757 244.125369 12418 -10886 00000000 58.593575
1817 56.805250 58.265757 245.249983 12418 -10886 00000000 58.593575
1818 56.836559 58.265757 246.376210 12418 -10886 00000000 58.593575
1819 56.867749 58.265757 247.498610 12418 -10886 00000000 58.593575
1820 56.899028 58.265757 248.623919 12418 -10886 00000000 58.593575
1821 56.930395 58.265757 249.751588 12418 -10886 00000000 58.593575
1822 56.961648 58.265757 250.873936 12418 -10886 00000000 58.593575
1823 56.992908 58.265757 252.000541 12418 -10886 00000000 58.593575
1824 57.024128 58.265757 253.124494 12418 -10886 00000000 58.593575
1825 57.055329 58.265757 254.249451 12418 -10886 00000000 58.593575
1826 57.086595 58.265757 255.373721 12418 -10886 00000000 58.593575
1827 57.117812 58.265757 256.501760 12418 -10886 00000000 58.593575
1828 57.149014 58.265757 257.624640 12418 -10886 00000000 58.593575
1829 57.180305 58.265757 258.748755 12418 -10886 00000000 58.593575
1830 57.211507 58.265757 259.874219 12418 -10886 00000000 58.593575
1831 57.242775 58.265757 260.997451 12418 -10886 00000000 58.593575
1832 57.274196 58.265757 262.125661 12418 -10886 00000000 58.593575
1833 57.305493 58.265757 263.249133 12418 -10886 00000000 58.593575
1834 57.336705 58.265757 264.377180 12418 -10886 00000000 58.593575
1835 57.367954 58.265757 265.501760 12418 -10886 00000000 58.593575
1836 57.399188 58.265757 266.624605 12418 -10886 00000000 58.593575
1837 57.430372 58.265757 267.748524 12418 -10886 00000000 58.593575
1838 57.461675 58.265757 268.873627 12418 -10886 00000000 58.593575
1839 57.492852 58.265757 269.997743 12418 -10886 00000000 58.593575
1840 57.524110 58.265757 271.123429 12418 -10886 00000000 58.593575
1841 57.555282 58.265757 272.251322 12418 -10886 00000000 58.593575
1842 57.586502 58.265757 273.375395 12418 -10886 00000000 58.593575
1843 57.617790 58.265757 274.500326 12418 -10886 00000000 58.593575
1844 57.649017 58.265757 275.623584 12418 -10886 00000000 58.593575
1845 57.680243 58.265757 276.751330 12418 -10886 00000000 58.593575
1846 57.711524 58.265757 277.875901 12418 -10886 00000000 58.593575
1847 57.742883 58.265757 279.000524 12418 -10886 00000000 58.593575
1848 57.774104 58.265757 280.124262 12418 -10886 00000000 58.593575
1849 57.805391 58.265757 281.251142 12418 -10886 00000000 58.593575
1850 57.836597 58.265757 282.375266 12418 -10886 00000000 58.593575
1851 57.867854 58.265757 283.500335 12418 -10886 00000000 58.593575
1852 57.899071 58.265757 284.626451 12418 -10886 00000000 58.593575
1853 57.930331 58.265757 285.751476 12418 -10886 00000000 58.593575
1854 57.961545 58.265757 286.875172 12418 -10886 00000000 58.593575
1855 57.992810 58.265757 287.997047 12418 -10886 00000000 58.593575
1856 58.024026 58.265757 289.125318 12418 -10886 00000000 58.593575
1857 58.055300 58.265757 290.250566 12418 -10886 00000000 58.593575
1858 58.086554 58.265757 291.374837 12418 -10886 00000000 58.593575
1859 58.117766 58.265757 292.498498 12418 -10886 00000000 58.593575
1860 58.149019 58.265757 293.624837 12418 -10886 00000000 58.593575
1861 58.180374 58.265757 294.752051 12418 -10886 00000000 58.593575
1862 58.211639 58.265757 295.874253 12418 -10886 00000000 58.593575
1863 58.242917 58.265757 296.998944 12418 -10886 00000000 58.593575
1864 58.274132 58.265757 298.125326 12418 -10886 00000000 58.593575
1865 58.305335 58.265757 299.250017 12418 -10886 00000000 58.593575
1866 58.336612 58.265757 300.374210 12418 -10886 00000000 58.593575
1867 58.367781 58.265757 301.498438 12418 -10886 00000000 58.593575
1868 58.399045 58.265757 -57.374820 12418 -10886 00000000 58.593575
1869 58.430317 58.265757 -56.248369 12418 -10886 00000000 58.593575
1870 58.461475 58.265757 -55.125875 12418 -10886 00000000 58.593575
1871 58.492800 58.265757 -53.999949 12418 -10886 00000000 58.593575
1872 58.524043 58.265757 -52.875618 12418 -10886 00000000 58.593575
1873 58.555288 58.265757 -51.751013 12418 -10886 00000000 58.593575
1874 58.586460 58.265757 -50.624468 12418 -10886 00000000 58.593575
1875 58.617869 58.265757 -49.499708 12418 -10886 00000000 58.593575
1876 58.649101 58.265757 -48.374142 12418 -10886 00000000 58.593575
1877 58.680331 58.265757 -47.248627 12418 -10886 00000000 58.593575
1878 58.711571 58.265757 -46.124047 12418 -10886 00000000 58.593575
1879 58.742857 58.265757 -44.998361 12418 -10886 00000000 58.593575
1880 58.774082 58.265757 -43.874167 12418 -10886 00000000 58.593575
1881 58.805300 58.265757 -42.750721 12418 -10886 00000000 58.593575
1882 58.836501 58.265757 -41.625833 12418 -10886 00000000 58.593575
1883 58.867768 58.265757 -40.498163 12418 -10886 00000000 58.593575
1884 58.898992 58.265757 -39.373738 12418 -10886 00000000 58.593575
1885 58.930230 58.265757 -38.249459 12418 -10886 00000000 58.593575
1886 58.961488 58.265757 -37.122992 12418 -10886 00000000 58.593575
1887 58.992732 58.265757 -36.002506 12418 -10886 00000000 58.593575
1888 59.023965 58.265757 -34.873618 12418 -10886 00000000 58.593575
1889 59.055386 58.265757 -33.751485 12418 -10886 00000000 58.593575
1890 59.086604 58.265757 -32.625652 12418 -10886 00000000 58.593575
1891 59.117846 58.265757 -31.499210 12418 -10886 00000000 58.593575
1892 59.149154 58.265757 -30.372820 12418 -10886 00000000 58.593575
1893 59.180264 58.265757 -29.251056 12418 -10886 00000000 58.593575
1894 59.211526 58.265757 -28.123412 12418 -10886 00000000 58.593575
1895 59.242824 58.265757 -26.999030 12418 -10886 00000000 58.593575
1896 59.274007 58.265757 -25.872803 12418 -10886 00000000 58.593575
1897 59.305291 58.265757 -24.750558 12418 -10886 00000000 58.593575
1898 59.336461 58.265757 -23.625635 12418 -10886 00000000 58.593575
1899 59.367720 58.265757 -22.500515 12418 -10886 00000000 58.593575
1900 59.399018 58.265757 -21.375034 12418 -10886 00000000 58.593575
1901 59.430245 58.265757 -20.249245 12418 -10886 00000000 58.593575
1902 59.461424 58.265757 -19.126373 12418 -10886 00000000 58.593575
1903 59.492800 58.265757 -17.999022 12418 -10886 00000000 58.593575
1904 59.524097 58.265757 -16.873549 12418 -10886 00000000 58.593575
1905 59.555372 58.265757 -15.750352 12418 -10886 00000000 58.593575
1906 59.586573 58.265757 -14.624674 12418 -10886 00000000 58.593575
1907 59.617839 58.265757 -13.501262 12418 -10886 00000000 58.593575
1908 59.649054 58.265757 -12.375137 12418 -10886 00000000 58.593575
1909 59.680210 58.265757 -11.248472 12418 -10886 00000000 58.593575
1910 59.711459 58.265757 -10.125867 12418 -10886 00000000 58.593575
1911 59.742785 58.265757 -9.000249 12418 -10886 00000000 58.593575
1912 59.773994 58.265757 -7.875472 12418 -10886 00000000 58.593575
1913 59.805207 58.265757 -6.747803 12418 -10886 00000000 58.593575
1914 59.836462 58.265757 -5.623446 12418 -10886 00000000 58.593575
1915 59.867682 58.265757 -4.499305 12418 -10886 00000000 58.593575
1916 59.899019 58.265757 -3.376493 12418 -10886 00000000 58.593575
1917 59.930304 58.265757 -2.249339 12418 -10886 00000000 58.593575
1918 59.961555 58.265757 -1.126390 12418 -10886 00000000 58.593575
1919 59.992819 58.265757 -0.000326 12418 -10886 00000000 58.593575
1920 60.024040 58.265757 1.123919 12418 -10886 00000000 58.593575
1921 60.055331 58.265757 2.251794 12418 -10886 00000000 58.593575
1922 60.086470 58.265757 3.376708 12418 -10886 00000000 58.593575
1923 60.117717 58.265757 4.500309 12418 -10886 00000000 58.593575
1924 60.148994 58.265757 5.623652 12418 -10886 00000000 58.593575
1925 60.180190 58.265757 6.748730 12418 -10886 00000000 58.593575
1926 60.211498 58.265757 7.876511 12418 -10886 00000000 58.593575
1927 60.242750 58.265757 9.001348 12418 -10886 00000000 58.593575
1928 60.274008 58.265757 10.125532 12418 -10886 00000000 58.593575
1929 60.305282 58.265757 11.249288 12418 -10886 00000000 58.593575
1930 60.336591 58.265757 12.374030 12418 -10886 00000000 58.593575
1931 60.367885 58.265757 13.499931 12418 -10886 00000000 58.593575
1932 60.399090 58.265757 14.626991 12418 -10886 00000000 58.593575
1933 60.430384 58.265757 15.750764 12418 -10886 00000000 58.593575
1934 60.461579 58.265757 16.875094 12418 -10886 00000000 58.593575
1935 60.492825 58.265757 18.001760 12418 -10886 00000000 58.593575
1936 60.523982 58.265757 19.125163 12418 -10886 00000000 58.593575
1937 60.555229 58.265757 20.250463 12418 -10886 00000000 58.593575
1938 60.586544 58.265757 21.374356 12418 -10886 00000000 58.593575
1939 60.617716 58.265757 22.498678 12418 -10886 00000000 58.593575
1940 60.648968 58.265757 23.625438 12418 -10886 00000000 58.593575
1941 60.680135 58.265757 24.749940 12418 -10886 00000000 58.593575
1942 60.711479 58.265757 25.873996 12418 -10886 00000000 58.593575
1943 60.742621 58.265757 26.999511 12418 -10886 00000000 58.593575
1944 60.774142 58.265757 28.126348 12418 -10886 00000000 58.593575
1945 60.805332 58.265757 29.249803 12418 -10886 00000000 58.593575
1946 60.836582 58.265757 30.374056 12418 -10886 00000000 58.593575
1947 60.867822 58.265757 31.498833 12418 -10886 00000000 58.593575
1948 60.899053 58.265757 32.625335 12418 -10886 00000000 58.593575
1949 60.930345 58.265757 33.750137 12418 -10886 00000000 58.593575
1950 60.961525 58.265757 34.874777 12418 -10886 00000000 58.593575
1951 60.992799 58.265757 36.001502 12418 -10886 00000000 58.593575
1952 61.024041 58.265757 37.125017 12418 -10886 00000000 58.593575
1953 61.055212 58.265757 38.248618 12418 -10886 00000000 58.593575
1954 61.086542 58.265757 39.376519 12418 -10886 00000000 58.593575
1955 61.117860 58.265757 40.500077 12418 -10886 00000000 58.593575
1956 61.149121 58.265757 41.626605 12418 -10886 00000000 58.593575
1957 61.180378 58.265757 42.750086 12418 -10886 00000000 58.593575
1958 61.211661 58.265757 43.873438 12418 -10886 00000000 58.593575
1959 61.242903 58.265757 44.999837 12418 -10886 00000000 58.593575
1960 61.274153 58.265757 46.125309 12418 -10886 00000000 58.593575
1961 61.305349 58.265757 47.251545 12418 -10886 00000000 58.593575
1962 61.336643 58.265757 48.375927 12418 -10886 00000000 58.593575
1963 61.367794 58.265757 49.501253 12418 -10886 00000000 58.593575
1964 61.399034 58.265757 50.624210 12418 -10886 00000000 58.593575
1965 61.430276 58.265757 51.748361 12418 -10886 00000000 58.593575
1966 61.461505 58.265757 52.876305 12418 -10886 00000000 58.593575
1967 61.492776 58.265757 53.997648 12418 -10886 00000000 58.593575
1968 61.524035 58.265757 55.125747 12418 -10886 00000000 58.593575
1969 61.555344 58.265757 56.248747 12418 -10886 00000000 58.593575
1970 61.586624 58.265757 57.375275 12418 -10886 00000000 58.593575
1971 61.617831 58.265757 58.500764 12418 -10886 00000000 58.593575
1972 61.649096 58.265757 59.623704 12418 -10886 00000000 58.593575
1973 61.680300 58.265757 60.748558 12418 -10886 00000000 58.593575
1974 61.711585 58.265757 61.875781 12418 -10886 00000000 58.593575
1975 61.742800 58.265757 62.997253 12418 -10886 00000000 58.411458
1976 61.773984 58.265757 64.126622 12418 -10886 00000000 58.411458
1977 61.805302 58.265757 65.251193 12418 -10886 00000000 58.411458
1978 61.836516 58.265757 66.375283 12418 -10886 00000000 58.411458
1979 61.867748 58.265757 67.499622 12418 -10886 00000000 58.411458
1980 61.898994 58.265757 68.626536 12418 -10886 00000000 58.411458
1981 61.930269 58.265757 69.751536 12418 -10886 00000000 58.411458
1982 61.961523 58.265757 70.873738 12418 -10886 00000000 58.411458
1983 61.992890 58.265757 71.999296 12418 -10886 00000000 58.411458
1984 62.024093 58.265757 73.124185 12418 -10886 00000000 58.411458
1985 62.055334 58.265757 74.250206 12418 -10886 00000000 58.411458
1986 62.086608 58.265757 75.374537 12418 -10886 00000000 58.411458
1987 62.117890 58.265757 76.499150 12418 -10886 00000000 58.411458
1988 62.149104 58.265757 77.625489 12418 -10886 00000000 58.411458
1989 62.180332 58.265757 78.750309 12418 -10886 00000000 58.411458
1990 62.211587 58.265757 79.874708 12418 -10886 00000000 58.411458
1991 62.242758 58.265757 81.000137 12418 -10886 00000000 58.411458
1992 62.274036 58.265757 82.124785 12418 -10886 00000000 58.411458
1993 62.305277 58.265757 83.249554 12418 -10886 00000000 58.411458
1994 62.336502 58.265757 84.373592 12418 -10886 00000000 58.411458
1995 62.367725 58.265757 85.500446 12418 -10886 00000000 58.411458
1996 62.398952 58.265757 86.626588 12418 -10886 00000000 58.411458
1997 62.430191 58.265757 87.751691 12418 -10886 00000000 58.411458
1998 62.461530 58.265757 88.875086 12418 -10886 00000000 58.411458
1999 62.492791 58.265757 90.001476 12418 -10886 00000000 58.411458
2000 62.524081 58.265757 91.125841 12418 -10886 00000000 58.411458
2001 62.555259 58.265757 92.251219 12418 -10886 00000000 58.411458
2002 62.586566 58.265757 93.374425 12418 -10886 00000000 58.411458
2003 62.617754 58.265757 94.499648 12418 -10886 00000000 58.411458
2004 62.648942 58.265757 95.626416 12418 -10886 00000000 58.411458
2005 62.680194 58.265757 96.751923 12418 -10886 00000000 58.411458
2006 62.711434 58.265757 97.875163 12418 -10886 00000000 58.411458
2007 62.742691 58.265757 99.000721 12418 -10886 00000000 58.411458
2008 62.773899 58.265757 100.125755 12418 -10886 00000000 58.411458
2009 62.805222 58.265757 101.249554 12418 -10886 00000000 58.411458
2010 62.836401 58.265757 102.374142 12418 -10886 00000000 58.411458
2011 62.867739 58.265757 103.502103 12418 -10886 00000000 58.411458
2012 62.899118 58.265757 104.625841 12418 -10886 00000000 58.411458
2013 62.930356 58.265757 105.750893 12418 -10886 00000000 58.411458
2014 62.961533 58.265757 106.874888 12418 -10886 00000000 58.411458
2015 62.992814 58.265757 108.000240 12418 -10886 00000000 58.411458
2016 63.023987 58.265757 109.124717 12418 -10886 00000000 58.411458
2017 63.055284 58.265757 110.248738 12418 -10886 00000000 58.411458
2018 63.086500 58.265757 111.373781 12418 -10886 00000000 58.411458
2019 63.117685 58.265757 112.501416 12418 -10886 00000000 58.411458
2020 63.148958 58.265757 113.625498 12418 -10886 00000000 58.411458
2021 63.180266 58.265757 114.751845 12418 -10886 00000000 58.411458
2022 63.211489 58.265757 115.876013 12418 -10886 00000000 58.411458
2023 63.242725 58.265757 117.001691 12418 -10886 00000000 58.411458
2024 63.273976 58.265757 118.127086 12418 -10886 00000000 58.411458
2025 63.305338 58.265757 119.251167 12418 -10886 00000000 58.411458
2026 63.336622 58.265757 120.375644 12418 -10886 00000000 58.411458
2027 63.367832 58.265757 121.499082 12418 -10886 00000000 58.411458
2028 63.399046 58.265757 122.625043 12418 -10886 00000000 58.411458
2029 63.430268 58.265757 123.749588 12418 -10886 00000000 58.411458
2030 63.461545 58.265757 124.874442 12418 -10886 00000000 58.411458
2031 63.492779 58.265757 126.000086 12418 -10886 00000000 58.411458
2032 63.524021 58.265757 127.123575 12418 -10886 00000000 58.411458
2033 63.555213 58.265757 128.252051 12418 -10886 00000000 58.411458
2034 63.586417 58.265757 129.376451 12418 -10886 00000000 58.411458
2035 63.617753 58.265757 130.501820 12418 -10886 00000000 58.411458
2036 63.648989 58.265757 131.623532 12418 -10886 00000000 58.411458
2037 63.680220 58.265757 132.750781 12418 -10886 00000000 58.411458
2038 63.711553 58.265757 133.874923 12418 -10886 00000000 58.411458
2039 63.742863 58.265757 134.997605 12418 -10886 00000000 58.411458
2040 63.774096 58.265757 136.127051 12418 -10886 00000000 58.411458
2041 63.805310 58.265757 137.251699 12418 -10886 00000000 58.411458
2042 63.836538 58.265757 138.375764 12418 -10886 00000000 58.411458
2043 63.867763 58.265757 139.500275 12418 -10886 00000000 58.411458
2044 63.899042 58.265757 140.625910 12418 -10886 00000000 58.411458
2045 63.930253 58.265757 141.751382 12418 -10886 00000000 58.411458
2046 63.961485 58.265757 142.875481 12418 -10886 00000000 58.411458
2047 63.992714 58.265757 144.002077 12418 -10886 00000000 58.411458
2048 64.023957 58.265757 145.125609 12418 -10886 00000000 58.411458
2049 64.055187 58.265757 146.250472 12418 -10886 00000000 58.411458
2050 64.086413 58.265757 147.374682 12418 -10886 00000000 58.411458
2051 64.117661 58.265757 148.498446 12418 -10886 00000000 58.411458
2052 64.148891 58.265757 149.625549 12418 -10886 00000000 58.411458
2053 64.180305 58.265757 150.751468 12418 -10886 00000000 58.411458
2054 64.211585 58.265757 151.876176 12418 -10886 00000000 58.411458
2055 64.242860 58.265757 153.001210 12418 -10886 00000000 58.411458
2056 64.274052 58.265757 154.126262 12418 -10886 00000000 58.411458
2057 64.305241 58.265757 155.249785 12418 -10886 00000000 58.411458
2058 64.336497 58.265757 156.374236 12418 -10886 00000000 58.411458
2059 64.367786 58.265757 157.498498 12418 -10886 00000000 58.411458
2060 64.398919 58.265757 158.624811 12418 -10886 00000000 58.411458
2061 64.430189 58.265757 159.749494 12418 -10886 00000000 58.411458
2062 64.461490 58.265757 160.874305 12418 -10886 00000000 58.411458
2063 64.492693 58.265757 161.999022 12418 -10886 00000000 58.411458
2064 64.524060 58.265757 163.125790 12418 -10886 00000000 58.411458
2065 64.555394 58.265757 164.249562 12418 -10886 00000000 58.411458
2066 64.586632 58.265757 165.377146 12418 -10886 00000000 58.411458
2067 64.617867 58.265757 166.501931 12418 -10886 00000000 58.411458
2068 64.649099 58.265757 167.624459 12418 -10886 00000000 58.411458
2069 64.680334 58.265757 168.749056 12418 -10886 00000000 58.411458
2070 64.711572 58.265757 169.877103 12418 -10886 00000000 58.411458
2071 64.742806 58.265757 170.998816 12418 -10886 00000000 58.411458
2072 64.774029 58.265757 172.123910 12418 -10886 00000000 58.411458
2073 64.805266 58.265757 173.251802 12418 -10886 00000000 58.411458
2074 64.836482 58.265757 174.376184 12418 -10886 00000000 58.411458
2075 64.867731 58.265757 175.499940 12418 -10886 00000000 58.411458
2076 64.898935 58.265757 176.627154 12418 -10886 00000000 58.411458
2077 64.930196 58.265757 177.750678 12418 -10886 00000000 58.411458
2078 64.961618 58.265757 178.874253 12418 -10886 00000000 58.411458
2079 64.992794 58.265757 179.999682 12418 -10886 00000000 58.411458
2080 65.024046 58.265757 181.123395 12418 -10886 00000000 58.411458
2081 65.055330 58.265757 182.251562 12418 -10886 00000000 58.411458
2082 65.086599 58.265757 183.376880 12418 -10886 00000000 58.411458
2083 65.117810 58.265757 184.500060 12418 -10886 00000000 58.411458
2084 65.149055 58.265757 185.626845 12418 -10886 00000000 58.411458
2085 65.180233 58.265757 186.751348 12418 -10886 00000000 58.411458
2086 65.211454 58.265757 187.875764 12418 -10886 00000000 58.411458
2087 65.242717 58.265757 189.001365 12418 -10886 00000000 58.411458
2088 65.273909 58.265757 190.125429 12418 -10886 00000000 58.411458
2089 65.305183 58.265757 191.250558 12418 -10886 00000000 58.411458
2090 65.336459 58.265757 192.374459 12418 -10886 00000000 58.411458
2091 65.367658 58.265757 193.501545 12418 -10886 00000000 58.411458
2092 65.399023 58.265757 194.625215 12418 -10886 00000000 58.411458
2093 65.430346 58.265757 195.749039 12418 -10886 00000000 58.411458
2094 65.461487 58.265757 196.874228 12418 -10886 00000000 58.411458
2095 65.492725 58.265757 198.000438 12418 -10886 00000000 58.411458
2096 65.523997 58.265757 199.124039 12418 -10886 00000000 58.411458
2097 65.555204 58.265757 200.251073 12418 -10886 00000000 58.411458
2098 65.586450 58.265757 201.375918 12418 -10886 00000000 58.411458
2099 65.617664 58.265757 202.501845 12418 -10886 00000000 58.411458
2100 65.648890 58.265757 203.624425 12418 -10886 00000000 58.411458
2101 65.680175 58.265757 204.750618 12418 -10886 00000000 58.411458
2102 65.711361 58.265757 205.875807 12418 -10886 00000000 58.411458
2103 65.742635 58.265757 206.999202 12418 -10886 00000000 58.411458
2104 65.773986 58.265757 208.126931 12418 -10886 00000000 58.411458
2105 65.805177 58.265757 209.248627 12418 -10886 00000000 58.411458
2106 65.836593 58.265757 210.374983 12418 -10886 00000000 58.411458
2107 65.867765 58.265757 211.499193 12418 -10886 00000000 58.411458
2108 65.899085 58.265757 212.624863 12418 -10886 00000000 58.411458
2109 65.930273 58.265757 213.749391 12418 -10886 00000000 58.411458
2110 65.961495 58.265757 214.876691 12418 -10886 00000000 58.411458
2111 65.992772 58.265757 216.001905 12418 -10886 00000000 58.411458
2112 66.023965 58.265757 217.127189 12418 -10886 00000000 58.411458
2113 66.055176 58.265757 218.252120 12418 -10886 00000000 58.411458
2114 66.086448 58.265757 219.375712 12418 -10886 00000000 58.411458
2115 66.117659 58.265757 220.500652 12418 -10886 00000000 58.411458
2116 66.148948 58.265757 221.623687 12418 -10886 00000000 58.411458
2117 66.180151 58.265757 222.751545 12418 -10886 00000000 58.411458
2118 66.211433 58.265757 223.876013 12418 -10886 00000000 58.411458
2119 66.242665 58.265757 225.002000 12418 -10886 00000000 58.411458
2120 66.274045 58.265757 226.125154 12418 -10886 00000000 58.411458
2121 66.305273 58.265757 227.249648 12418 -10886 00000000 58.411458
2122 66.336509 58.265757 228.373893 12418 -10886 00000000 58.411458
2123 66.367750 58.265757 229.499785 12418 -10886 00000000 58.411458
2124 66.399039 58.265757 230.624288 12418 -10886 00000000 58.411458
2125 66.430228 58.265757 231.749236 12418 -10886 00000000 58.411458
2126 66.461478 58.265757 232.873747 12418 -10886 00000000 58.411458
2127 66.492699 58.265757 234.001691 12418 -10886 00000000 58.411458
2128 66.523893 58.265757 235.125266 12418 -10886 00000000 58.411458
2129 66.555183 58.265757 236.251073 12418 -10886 00000000 58.411458
2130 66.586370 58.265757 237.374682 12418 -10886 00000000 58.411458
2131 66.617710 58.265757 238.501382 12418 -10886 00000000 58.411458
2132 66.648867 58.265757 239.625455 12418 -10886 00000000 58.411458
2133 66.680161 58.265757 240.749425 12418 -10886 00000000 58.411458
2134 66.711534 58.265757 241.873747 12418 -10886 00000000 58.411458
2135 66.742824 58.265757 243.001382 12418 -10886 00000000 58.411458
2136 66.773999 58.265757 244.125335 12418 -10886 00000000 58.411458
2137 66.805199 58.265757 245.251339 12418 -10886 00000000 58.411458
2138 66.836522 58.265757 246.374906 12418 -10886 00000000 58.411458
2139 66.867715 58.265757 247.499442 12418 -10886 00000000 58.411458
2140 66.898935 58.265757 248.623953 12418 -10886 00000000 58.411458
2141 66.930196 58.265757 249.751073 12418 -10886 00000000 58.411458
2142 66.961384 58.265757 250.874107 12418 -10886 00000000 58.411458
2143 66.992674 58.265757 252.000918 12418 -10886 00000000 58.411458
2144 67.023922 58.265757 253.123867 12418 -10886 00000000 58.411458
2145 67.055179 58.265757 254.251039 12418 -10886 00000000 58.411458
2146 67.086451 58.265757 255.375824 12418 -10886 00000000 58.411458
2147 67.117765 58.265757 256.501699 12418 -10886 00000000 58.411458
2148 67.149080 58.265757 257.624391 12418 -10886 00000000 58.411458
2149 67.180350 58.265757 258.749167 12418 -10886 00000000 58.411458
2150 67.211562 58.265757 259.876657 12418 -10886 00000000 58.411458
2151 67.242747 58.265757 260.998987 12418 -10886 00000000 58.411458
2152 67.273952 58.265757 262.126605 12418 -10886 00000000 58.411458
2153 67.305207 58.265757 263.252026 12418 -10886 00000000 58.411458
2154 67.336483 58.265757 264.375627 12418 -10886 00000000 58.411458
2155 67.367638 58.265757 265.500824 12418 -10886 00000000 58.411458
2156 67.398949 58.265757 266.624073 12418 -10886 00000000 58.411458
2157 67.430355 58.265757 267.751236 12418 -10886 00000000 58.411458
2158 67.461676 58.265757 268.873464 12418 -10886 00000000 58.411458
2159 67.492910 58.265757 269.999622 12418 -10886 00000000 58.411458
2160 67.524062 58.265757 271.123953 12418 -10886 00000000 58.411458
2161 67.555277 58.265757 272.248498 12418 -10886 00000000 58.411458
2162 67.586513 58.265757 273.375987 12418 -10886 00000000 58.411458
2163 67.617774 58.265757 274.500695 12418 -10886 00000000 58.411458
2164 67.649079 58.265757 275.627017 12418 -10886 00000000 58.411458
2165 67.680248 58.265757 276.752017 12418 -10886 00000000 58.411458
2166 67.711438 58.265757 277.876253 12418 -10886 00000000 58.411458
2167 67.742706 58.265757 279.001948 12418 -10886 00000000 58.411458
2168 67.773943 58.265757 280.126245 12418 -10886 00000000 58.411458
2169 67.805138 58.265757 281.250781 12418 -10886 00000000 58.411458
2170 67.836486 58.265757 282.375378 12418 -10886 00000000 58.411458
2171 67.867685 58.265757 283.499047 12418 -10886 00000000 58.411458
2172 67.899031 58.265757 284.624794 12418 -10886 00000000 58.411458
2173 67.930310 58.265757 285.749785 12418 -10886 00000000 58.411458
2174 67.961556 58.265757 286.876047 12418 -10886 00000000 58.411458
2175 67.992826 58.265757 288.001348 12418 -10886 00000000 58.411458
2176 68.024055 58.265757 289.125755 12418 -10886 00000000 58.411458
2177 68.055239 58.265757 290.250257 12418 -10886 00000000 58.411458
2178 68.086500 58.265757 291.374331 12418 -10886 00000000 58.411458
2179 68.117706 58.265757 292.498464 12418 -10886 00000000 58.411458
2180 68.148944 58.265757 293.625352 12418 -10886 00000000 58.411458
2181 68.180187 58.265757 294.749708 12418 -10886 00000000 58.411458
2182 68.211416 58.265757 295.873695 12418 -10886 00000000 58.411458
2183 68.242728 58.265757 297.000352 12418 -10886 00000000 58.411458
2184 68.273895 58.265757 298.124022 12418 -10886 00000000 58.411458
2185 68.305179 58.265757 299.249064 12418 -10886 00000000 58.411458
2186 68.336494 58.265757 300.375850 12418 -10886 00000000 58.411458
2187 68.367750 58.265757 301.498507 12418 -10886 00000000 58.411458
2188 68.399049 58.265757 -57.372777 12418 -10886 00000000 58.411458
2189 68.430330 58.265757 -56.249974 12418 -10886 00000000 58.411458
2190 68.461538 58.265757 -55.125953 12418 -10886 00000000 58.411458
2191 68.492810 58.265757 -54.000223 12418 -10886 00000000 58.411458
2192 68.524021 58.265757 -52.875584 12418 -10886 00000000 58.411458
2193 68.555209 58.265757 -51.751390 12418 -10886 00000000 58.411458
2194 68.586459 58.265757 -50.626408 12418 -10886 00000000 58.411458
2195 68.617653 58.265757 -49.498404 12418 -10886 00000000 58.411458
2196 68.648918 58.265757 -48.375627 12418 -10886 00000000 58.411458
2197 68.680180 58.265757 -47.250893 12418 -10886 00000000 58.411458
2198 68.711459 58.265757 -46.126614 12418 -10886 00000000 58.411458
2199 68.742648 58.265757 -45.002618 12418 -10886 00000000 58.411458
2200 68.774044 58.265757 -43.874588 12418 -10886 00000000 58.411458
2201 68.805340 58.265757 -42.749030 12418 -10886 00000000 58.411458
2202 68.836596 58.265757 -41.623721 12418 -10886 00000000 58.411458
2203 68.867781 58.265757 -40.498987 12418 -10886 00000000 58.411458
2204 68.899082 58.265757 -39.376528 12418 -10886 00000000 58.411458
2205 68.930278 58.265757 -38.248129 12418 -10886 00000000 58.411458
2206 68.961524 58.265757 -37.123146 12418 -10886 00000000 58.411458
2207 68.992713 58.265757 -35.997863 12418 -10886 00000000 58.411458
2208 69.023947 58.265757 -34.873429 12418 -10886 00000000 58.411458
2209 69.055192 58.265757 -33.748652 12418 -10886 00000000 58.411458
2210 69.086453 58.265757 -32.624854 12418 -10886 00000000 58.411458
2211 69.117726 58.265757 -31.497974 12418 -10886 00000000 58.411458
2212 69.148881 58.265757 -30.373223 12418 -10886 00000000 58.411458
2213 69.180206 58.265757 -29.249185 12418 -10886 00000000 58.411458
2214 69.211385 58.265757 -28.124056 12418 -10886 00000000 58.411458
2215 69.242775 58.265757 -26.999554 12418 -10886 00000000 58.411458
2216 69.274028 58.265757 -25.876296 12418 -10886 00000000 58.411458
2217 69.305238 58.265757 -24.749408 12418 -10886 00000000 58.411458
2218 69.336443 58.265757 -23.624459 12418 -10886 00000000 58.411458
2219 69.367698 58.265757 -22.498652 12418 -10886 00000000 58.411458
2220 69.398961 58.265757 -21.375206 12418 -10886 00000000 58.411458
2221 69.430233 58.265757 -20.249743 12418 -10886 00000000 58.411458
2222 69.461390 58.265757 -19.122871 12418 -10886 00000000 58.411458
2223 69.492677 58.265757 -18.000515 12418 -10886 00000000 58.411458
2224 69.523877 58.265757 -16.875412 12418 -10886 00000000 58.411458
2225 69.555091 58.265757 -15.750755 12418 -10886 00000000 58.411458
2226 69.586444 58.265757 -14.624974 12418 -10886 00000000 58.411458
2227 69.617615 58.265757 -13.498558 12418 -10886 00000000 58.411458
2228 69.648866 58.265757 -12.373369 12418 -10886 00000000 58.411458
2229 69.680276 58.265757 -11.247940 12418 -10886 00000000 58.411458
2230 69.711517 58.265757 -10.126073 12418 -10886 00000000 58.411458
2231 69.742729 58.265757 -9.001124 12418 -10886 00000000 58.411458
2232 69.773941 58.265757 -7.874408 12418 -10886 00000000 58.411458
2233 69.805249 58.265757 -6.751519 12418 -10886 00000000 58.411458
2234 69.836509 58.265757 -5.623652 12418 -10886 00000000 58.411458
2235 69.867634 58.265757 -4.501373 12418 -10886 00000000 58.411458
2236 69.898857 58.265757 -3.376279 12418 -10886 00000000 58.411458
2237 69.930154 58.265757 -2.248095 12418 -10886 00000000 58.411458
2238 69.961374 58.265757 -1.125472 12418 -10886 00000000 58.411458
2239 69.992594 58.265757 0.001562 12418 -10886 00000000 58.411458
2240 70.023862 58.265757 1.126184 12418 -10886 00000000 58.411458
2241 70.055111 58.265757 2.250180 12418 -10886 00000000 58.411458
2242 70.086536 58.265757 3.376614 12418 -10886 00000000 58.411458
2243 70.117800 58.265757 4.499588 12418 -10886 00000000 58.411458
2244 70.148982 58.265757 5.626820 12418 -10886 00000000 58.411458
2245 70.180287 58.265757 6.748481 12418 -10886 00000000 58.411458
2246 70.211508 58.265757 7.874717 12418 -10886 00000000 58.411458
2247 70.242648 58.265757 9.001657 12418 -10886 00000000 58.411458
2248 70.273937 58.265757 10.123421 12418 -10886 00000000 58.411458
2249 70.305161 58.265757 11.250730 12418 -10886 00000000 58.411458
2250 70.336428 58.265757 12.374914 12418 -10886 00000000 58.411458
2251 70.367602 58.265757 13.499296 12418 -10886 00000000 58.411458
2252 70.398896 58.265757 14.625747 12418 -10886 00000000 58.411458
2253 70.430156 58.265757 15.750524 12418 -10886 00000000 58.411458
2254 70.461453 58.265757 16.877094 12418 -10886 00000000 58.411458
2255 70.492777 58.265757 18.001880 12418 -10886 00000000 58.411458
2256 70.524009 58.265757 19.123592 12418 -10886 00000000 58.411458
2257 70.555237 58.265757 20.250146 12418 -10886 00000000 58.411458
2258 70.586533 58.265757 21.373884 12418 -10886 00000000 58.411458
2259 70.617698 58.265757 22.498395 12418 -10886 00000000 58.411458
2260 70.649010 58.265757 23.625961 12418 -10886 00000000 58.411458
2261 70.680175 58.265757 24.749940 12418 -10886 00000000 58.411458
2262 70.711416 58.265757 25.873927 12418 -10886 00000000 58.411458
2263 70.742645 58.265757 26.999519 12418 -10886 00000000 58.411458
2264 70.773941 58.265757 28.123841 12418 -10886 00000000 58.411458
2265 70.805176 58.265757 29.248713 12418 -10886 00000000 58.411458
2266 70.836373 58.265757 30.375541 12418 -10886 00000000 58.411458
2267 70.867572 58.265757 31.500815 12418 -10886 00000000 58.411458
2268 70.898813 58.265757 32.624708 12418 -10886 00000000 58.411458
2269 70.930306 58.265757 33.750129 12418 -10886 00000000 58.411458
2270 70.961520 58.265757 34.874305 12418 -10886 00000000 58.411458
2271 70.992774 58.265757 35.999983 12418 -10886 00000000 58.411458
2272 71.024049 58.265757 37.123850 12418 -10886 00000000 58.411458
2273 71.055279 58.265757 38.248867 12418 -10886 00000000 58.411458
2274 71.086431 58.265757 39.376665 12418 -10886 00000000 58.411458
2275 71.117655 58.265757 40.500978 12418 -10886 00000000 58.411458
2276 71.148963 58.265757 41.623936 12418 -10886 00000000 58.411458
2277 71.180178 58.265757 42.748481 12418 -10886 00000000 58.411458
2278 71.211377 58.265757 43.876828 12418 -10886 00000000 58.411458
2279 71.242672 58.265757 44.997622 12418 -10886 00000000 58.411458
2280 71.273900 58.265757 46.123498 12418 -10886 00000000 58.411458
2281 71.305326 58.265757 47.250069 12418 -10886 00000000 58.411458
2282 71.336550 58.265757 48.375764 12418 -10886 00000000 58.411458
2283 71.367787 58.265757 49.501287 12418 -10886 00000000 58.411458
2284 71.398985 58.265757 50.626794 12418 -10886 00000000 58.411458
2285 71.430261 58.265757 51.752086 12418 -10886 00000000 58.411458
2286 71.461465 58.265757 52.876202 12418 -10886 00000000 58.411458
2287 71.492735 58.265757 54.002240 12418 -10886 00000000 58.411458
2288 71.523982 58.265757 55.126064 12418 -10886 00000000 58.411458
2289 71.555237 58.265757 56.250875 12418 -10886 00000000 58.411458
2290 71.586389 58.265757 57.375086 12418 -10886 00000000 58.411458
2291 71.617696 58.265757 58.498850 12418 -10886 00000000 58.411458
2292 71.648941 58.265757 59.625120 12418 -10886 00000000 58.411458
2293 71.680192 58.265757 60.749751 12418 -10886 00000000 58.411458
2294 71.711361 58.265757 61.873996 12418 -10886 00000000 58.411458
2295 71.742722 58.265757 63.000918 12418 -10886 00000000 57.628290
2296 71.774008 58.265757 64.124193 12418 -10886 00000000 57.628290
2297 71.805247 58.265757 65.250292 12418 -10886 00000000 57.628290
2298 71.836578 58.048976 66.375086 12417 -10885 00000000 57.628290
2299 71.867721 58.048976 67.498798 12417 -10885 00000000 57.628290
2300 71.898939 57.940586 68.625627 12416 -10885 00000000 57.628290
2301 71.930206 57.940586 69.750695 12416 -10885 00000000 57.628290
2302 71.961441 57.940586 70.874665 12416 -10885 00000000 57.628290
2303 71.992709 57.940586 72.000738 12416 -10885 00000000 57.628290
2304 72.023871 57.940586 73.124451 12416 -10885 00000000 57.628290
2305 72.055105 57.940586 74.249116 12416 -10885 00000000 57.628290
2306 72.086432 57.940586 75.374159 12416 -10885 00000000 57.628290
2307 72.117655 57.940586 76.501699 12416 -10885 00000000 57.628290
2308 72.148903 57.940586 77.624245 12416 -10885 00000000 57.628290
2309 72.180271 57.940586 78.752129 12416 -10885 00000000 57.628290
2310 72.211505 57.940586 79.874133 12416 -10885 00000000 57.628290
2311 72.242810 57.940586 80.997820 12416 -10885 00000000 57.628290
2312 72.274034 57.940586 82.124519 12416 -10885 00000000 57.628290
2313 72.305224 57.940586 83.248944 12416 -10885 00000000 57.628290
2314 72.336516 57.940586 84.376219 12416 -10885 00000000 57.628290
2315 72.367685 57.940586 85.500712 12416 -10885 00000000 57.628290
2316 72.398900 57.940586 86.624090 12416 -10885 00000000 57.628290
2317 72.430172 57.940586 87.751622 12416 -10885 00000000 57.628290
2318 72.461424 57.940586 88.875953 12416 -10885 00000000 57.628290
2319 72.492638 57.940586 90.001905 12416 -10885 00000000 57.628290
2320 72.523881 57.940586 91.125815 12416 -10885 00000000 57.628290
2321 72.555123 57.940586 92.250833 12416 -10885 00000000 57.628290
2322 72.586396 57.940586 93.375541 12416 -10885 00000000 57.628290
2323 72.617702 57.940586 94.502043 12416 -10885 00000000 57.628290
2324 72.649006 57.940586 95.625386 12416 -10885 00000000 57.628290
2325 72.680243 57.940586 96.751081 12416 -10885 00000000 57.628290
2326 72.711516 57.940586 97.875017 12416 -10885 00000000 57.628290
2327 72.742694 57.940586 99.001330 12416 -10885 00000000 57.628290
2328 72.773934 57.940586 100.126511 12416 -10885 00000000 57.628290
2329 72.805203 57.940586 101.250094 12416 -10885 00000000 57.628290
2330 72.836435 57.940586 102.373584 12416 -10885 00000000 57.628290
2331 72.867676 57.940586 103.498386 12416 -10885 00000000 57.628290
2332 72.898869 57.940586 104.625498 12416 -10885 00000000 57.628290
2333 72.930145 57.940586 105.750318 12416 -10885 00000000 57.628290
2334 72.961331 57.940586 106.873421 12416 -10885 00000000 57.628290
2335 72.992589 57.940586 108.000009 12416 -10885 00000000 57.628290
2336 73.023848 57.940586 109.124356 12416 -10885 00000000 57.628290
2337 73.055223 57.940586 110.251863 12416 -10885 00000000 57.628290
2338 73.086523 57.940586 111.376039 12416 -10885 00000000 57.628290
2339 73.117767 57.940586 112.502172 12416 -10885 00000000 57.628290
2340 73.148976 57.940586 113.624064 12416 -10885 00000000 57.628290
2341 73.180153 57.940586 114.751348 12416 -10885 00000000 57.628290
2342 73.211457 57.940586 115.873481 12416 -10885 00000000 57.628290
2343 73.242664 57.940586 117.001373 12416 -10885 00000000 57.628290
2344 73.273847 57.940586 118.123678 12416 -10885 00000000 57.628290
2345 73.305115 57.940586 119.251802 12416 -10885 00000000 57.628290
2346 73.336445 57.940586 120.375566 12416 -10885 00000000 57.628290
2347 73.367667 57.940586 121.499974 12416 -10885 00000000 57.628290
2348 73.398906 57.940586 122.625961 12416 -10885 00000000 57.628290
2349 73.430095 57.940586 123.748618 12416 -10885 00000000 57.628290
2350 73.461518 57.940586 124.874811 12416 -10885 00000000 57.628290
2351 73.492706 57.940586 126.001751 12416 -10885 00000000 57.628290
2352 73.523989 57.940586 127.123953 12416 -10885 00000000 57.628290
2353 73.555176 57.940586 128.252163 12416 -10885 00000000 57.628290
2354 73.586410 57.940586 129.374159 12416 -10885 00000000 57.628290
2355 73.617676 57.940586 130.500772 12416 -10885 00000000 57.628290
2356 73.648941 57.940586 131.624219 12416 -10885 00000000 57.628290
2357 73.680180 57.940586 132.750403 12416 -10885 00000000 57.628290
2358 73.711328 57.940586 133.874717 12416 -10885 00000000 57.628290
2359 73.742571 57.940586 135.001940 12416 -10885 00000000 57.628290
2360 73.773831 57.940586 136.125884 12416 -10885 00000000 57.628290
2361 73.805073 57.940586 137.250730 12416 -10885 00000000 57.628290
2362 73.836402 57.940586 138.373790 12416 -10885 00000000 57.628290
2363 73.867786 57.940586 139.502197 12416 -10885 00000000 57.628290
2364 73.899044 57.940586 140.626511 12416 -10885 00000000 57.628290
2365 73.930238 57.940586 141.751056 12416 -10885 00000000 57.628290
2366 73.961540 57.940586 142.875790 12416 -10885 00000000 57.628290
2367 73.992679 57.940586 144.000850 12416 -10885 00000000 57.628290
2368 74.023910 57.940586 145.125249 12416 -10885 00000000 57.628290
2369 74.055193 57.940586 146.250232 12416 -10885 00000000 57.628290
2370 74.086426 57.940586 147.374099 12416 -10885 00000000 57.628290
2371 74.117638 57.940586 148.499064 12416 -10885 00000000 57.628290
2372 74.148890 57.940586 149.625481 12416 -10885 00000000 57.628290
2373 74.180146 57.940586 150.749760 12416 -10885 00000000 57.628290
2374 74.211337 57.940586 151.876064 12416 -10885 00000000 57.628290
2375 74.242611 57.940586 152.999682 12416 -10885 00000000 57.628290
2376 74.273801 57.940586 154.124665 12416 -10885 00000000 57.628290
2377 74.305078 57.940586 155.248601 12416 -10885 00000000 57.628290
2378 74.336522 57.940586 156.374279 12416 -10885 00000000 57.628290
2379 74.367720 57.940586 157.499099 12416 -10885 00000000 57.628290
2380 74.398960 57.940586 158.626502 12416 -10885 00000000 57.628290
2381 74.430230 57.940586 159.750060 12416 -10885 00000000 57.628290
2382 74.461395 57.940586 160.875163 12416 -10885 00000000 57.628290
2383 74.492705 57.940586 162.000000 12416 -10885 00000000 57.628290
2384 74.523951 57.940586 163.124923 12416 -10885 00000000 57.628290
2385 74.555097 57.940586 164.249133 12416 -10885 00000000 57.628290
2386 74.586436 57.940586 165.374245 12416 -10885 00000000 57.628290
2387 74.617605 57.940586 166.501905 12416 -10885 00000000 57.628290
2388 74.648895 57.940586 167.625309 12416 -10885 00000000 57.628290
2389 74.680242 57.940586 168.751596 12416 -10885 00000000 57.628290
2390 74.711513 57.940586 169.876777 12416 -10885 00000000 57.628290
2391 74.742708 57.940586 170.999923 12416 -10885 00000000 57.628290
2392 74.774001 57.940586 172.124545 12416 -10885 00000000 57.628290
2393 74.805234 57.940586 173.248893 12416 -10885 00000000 57.628290
2394 74.836510 57.940586 174.376820 12416 -10885 00000000 57.628290
2395 74.867700 57.940586 175.501073 12416 -10885 00000000 57.628290
2396 74.898887 57.940586 176.624459 12416 -10885 00000000 57.628290
2397 74.930154 57.940586 177.748961 12416 -10885 00000000 57.628290
2398 74.961405 57.940586 178.876382 12416 -10885 00000000 57.628290
2399 74.992637 57.940586 179.997459 12416 -10885 00000000 57.628290
2400 75.023838 57.940586 181.126888 12416 -10885 00000000 57.628290
2401 75.055168 57.940586 182.251734 12416 -10885 00000000 57.628290
2402 75.086364 57.940586 183.375635 12416 -10885 00000000 57.628290
2403 75.117762 57.940586 184.500154 12416 -10885 00000000 57.628290
2404 75.148977 57.940586 185.627189 12416 -10885 00000000 57.628290
2405 75.180249 57.940586 186.749425 12416 -10885 00000000 57.628290
2406 75.211497 57.940586 187.876382 12416 -10885 00000000 57.628290
2407 75.242750 57.940586 188.999665 12416 -10885 00000000 57.628290
2408 75.273955 57.940586 190.126433 12416 -10885 00000000 57.628290
2409 75.305184 57.940586 191.251210 12416 -10885 00000000 57.628290
2410 75.336462 57.940586 192.375687 12416 -10885 00000000 57.628290
2411 75.367660 57.940586 193.500524 12416 -10885 00000000 57.628290
2412 75.398861 57.940586 194.623446 12416 -10885 00000000 57.628290
2413 75.430153 57.940586 195.752154 12416 -10885 00000000 57.628290
2414 75.461386 57.940586 196.875249 12416 -10885 00000000 57.628290
2415 75.492624 57.940586 198.001905 12416 -10885 00000000 57.628290
2416 75.523883 57.940586 199.125652 12416 -10885 00000000 57.628290
2417 75.555179 57.940586 200.249013 12416 -10885 00000000 57.628290
2418 75.586460 57.940586 201.376931 12416 -10885 00000000 57.628290
2419 75.617752 57.940586 202.501845 12416 -10885 00000000 57.628290
2420 75.648983 57.940586 203.625815 12416 -10885 00000000 57.628290
2421 75.680160 57.940586 204.749236 12416 -10885 00000000 57.628290
2422 75.711440 57.940586 205.876596 12416 -10885 00000000 57.628290
2423 75.742675 57.940586 206.997786 12416 -10885 00000000 57.628290
2424 75.773911 57.940586 208.126622 12416 -10885 00000000 57.628290
2425 75.805081 57.940586 209.251322 12416 -10885 00000000 57.628290
2426 75.836335 57.940586 210.375524 12416 -10885 00000000 57.628290
2427 75.867603 57.940586 211.500472 12416 -10885 00000000 57.628290
2428 75.898871 57.940586 212.625249 12416 -10885 00000000 57.628290
2429 75.930121 57.940586 213.749485 12416 -10885 00000000 57.628290
2430 75.961319 57.940586 214.874125 12416 -10885 00000000 57.628290
2431 75.992740 57.940586 216.002154 12416 -10885 00000000 57.628290
2432 76.023914 57.940586 217.127180 12416 -10885 00000000 57.628290
2433 76.055170 57.940586 218.248944 12416 -10885 00000000 57.628290
2434 76.086413 57.940586 219.376983 12416 -10885 00000000 57.628290
2435 76.117702 57.940586 220.501760 12416 -10885 00000000 57.628290
2436 76.148935 57.940586 221.625463 12416 -10885 00000000 57.628290
2437 76.180172 57.940586 222.751966 12416 -10885 00000000 57.628290
2438 76.211421 57.940586 223.877111 12416 -10885 00000000 57.628290
2439 76.242652 57.940586 224.998979 12416 -10885 00000000 57.628290
2440 76.273872 57.940586 226.126622 12416 -10885 00000000 57.628290
2441 76.305074 57.940586 227.251554 12416 -10885 00000000 57.628290
2442 76.336324 57.940586 228.375566 12416 -10885 00000000 57.628290
2443 76.367625 57.940586 229.500378 12416 -10885 00000000 57.628290
2444 76.398838 57.940586 230.623489 12416 -10885 00000000 57.628290
2445 76.430074 57.940586 231.749983 12416 -10885 00000000 57.628290
2446 76.461408 57.940586 232.877017 12416 -10885 00000000 57.628290
2447 76.492729 57.940586 234.001133 12416 -10885 00000000 57.628290
2448 76.523918 57.940586 235.125875 12416 -10885 00000000 57.628290
2449 76.555145 57.940586 236.249073 12416 -10885 00000000 57.628290
2450 76.586416 57.940586 237.374451 12416 -10885 00000000 57.628290
2451 76.617614 57.940586 238.499356 12416 -10885 00000000 57.628290
2452 76.648848 57.940586 239.624562 12416 -10885 00000000 57.628290
2453 76.680141 57.940586 240.750180 12416 -10885 00000000 57.628290
2454 76.711321 57.940586 241.874331 12416 -10885 00000000 57.628290
2455 76.742522 57.940586 242.997365 12416 -10885 00000000 57.628290
2456 76.773788 57.940586 244.124142 12416 -10885 00000000 57.628290
2457 76.805121 57.940586 245.248558 12416 -10885 00000000 57.628290
2458 76.836380 57.940586 246.375266 12416 -10885 00000000 57.628290
2459 76.867679 57.940586 247.500378 12416 -10885 00000000 57.628290
2460 76.898928 57.940586 248.626116 12416 -10885 00000000 57.628290
2461 76.930201 57.940586 249.750386 12416 -10885 00000000 57.628290
2462 76.961406 57.940586 250.874150 12416 -10885 00000000 57.628290
2463 76.992645 57.940586 252.001408 12416 -10885 00000000 57.628290
2464 77.023861 57.940586 253.124416 12416 -10885 00000000 57.628290
2465 77.055124 57.940586 254.249056 12416 -10885 00000000 57.628290
2466 77.086401 57.940586 255.373549 12416 -10885 00000000 57.628290
2467 77.117554 57.940586 256.501245 12416 -10885 00000000 57.628290
2468 77.148887 57.940586 257.624279 12416 -10885 00000000 57.628290
2469 77.180056 57.940586 258.748876 12416 -10885 00000000 57.628290
2470 77.211311 57.940586 259.875738 12416 -10885 00000000 57.628290
2471 77.242609 57.940586 261.001210 12416 -10885 00000000 57.628290
2472 77.273942 57.940586 262.125798 12416 -10885 00000000 57.628290
2473 77.305188 57.940586 263.250566 12416 -10885 00000000 57.628290
2474 77.336519 57.940586 264.376322 12416 -10885 00000000 57.628290
2475 77.367659 57.940586 265.501279 12416 -10885 00000000 57.628290
2476 77.398962 57.940586 266.624288 12416 -10885 00000000 57.628290
2477 77.430143 57.940586 267.748515 12416 -10885 00000000 57.628290
2478 77.461355 57.940586 268.876193 12416 -10885 00000000 57.628290
2479 77.492608 57.940586 269.997391 12416 -10885 00000000 57.628290
2480 77.523909 57.940586 271.126768 12416 -10885 00000000 57.628290
2481 77.555054 57.940586 272.248361 12416 -10885 00000000 57.628290
2482 77.586306 57.940586 273.375060 12416 -10885 00000000 57.628290
2483 77.617551 57.940586 274.499674 12416 -10885 00000000 57.628290
2484 77.648785 57.940586 275.623464 12416 -10885 00000000 57.628290
2485 77.680012 57.940586 276.751279 12416 -10885 00000000 57.628290
2486 77.711449 57.940586 277.876785 12416 -10885 00000000 57.628290
2487 77.742729 57.940586 278.999133 12416 -10885 00000000 57.628290
2488 77.773995 57.940586 280.126845 12416 -10885 00000000 57.628290
2489 77.805171 57.940586 281.250824 12416 -10885 00000000 57.628290
2490 77.836481 57.940586 282.375687 12416 -10885 00000000 57.628290
2491 77.867615 57.940586 283.500060 12416 -10885 00000000 57.628290
2492 77.898868 57.940586 284.626734 12416 -10885 00000000 57.628290
2493 77.930111 57.940586 285.751210 12416 -10885 00000000 57.628290
2494 77.961326 57.940586 286.875051 12416 -10885 00000000 57.628290
2495 77.992599 57.940586 288.000412 12416 -10885 00000000 57.628290
2496 78.023893 57.940586 289.125970 12416 -10885 00000000 57.628290
2497 78.055216 57.940586 290.249803 12416 -10885 00000000 57.628290
2498 78.086456 57.940586 291.376099 12416 -10885 00000000 57.628290
2499 78.117683 57.940586 292.498944 12416 -10885 00000000 57.628290
2500 78.148948 57.940586 293.625996 12416 -10885 00000000 57.628290
2501 78.180228 57.940586 294.750172 12416 -10885 00000000 57.628290
2502 78.211441 57.940586 295.875086 12416 -10885 00000000 57.628290
2503 78.242661 57.940586 297.000266 12416 -10885 00000000 57.628290
2504 78.273876 57.940586 298.124803 12416 -10885 00000000 57.628290
2505 78.305163 57.940586 299.249193 12416 -10885 00000000 57.628290
2506 78.336423 57.940586 300.374082 12416 -10885 00000000 57.628290
2507 78.367641 57.940586 301.501373 12416 -10885 00000000 57.628290
2508 78.398870 57.940586 -57.375429 12416 -10885 00000000 57.628290
2509 78.430143 57.940586 -56.250695 12416 -10885 00000000 57.628290
2510 78.461381 57.940586 -55.123592 12416 -10885 00000000 57.628290
2511 78.492635 57.940586 -53.998198 12416 -10885 00000000 57.628290
2512 78.523981 57.940586 -52.873120 12416 -10885 00000000 57.628290
2513 78.555247 57.940586 -51.749116 12416 -10885 00000000 57.628290
2514 78.586491 57.940586 -50.622846 12416 -10885 00000000 57.628290
2515 78.617655 57.940586 -49.498283 12416 -10885 00000000 57.628290
2516 78.648892 57.940586 -48.375575 12416 -10885 00000000 57.628290
2517 78.680166 57.940586 -47.251167 12416 -10885 00000000 57.628290
2518 78.711390 57.940586 -46.126562 12416 -10885 00000000 57.628290
2519 78.742610 57.940586 -45.002275 12416 -10885 00000000 57.628290
2520 78.773861 57.940586 -43.873086 12416 -10885 00000000 57.628290
2521 78.805133 57.940586 -42.748584 12416 -10885 00000000 57.628290
2522 78.836290 57.940586 -41.624056 12416 -10885 00000000 57.628290
2523 78.867610 57.940586 -40.499888 12416 -10885 00000000 57.628290
2524 78.898811 57.940586 -39.375978 12416 -10885 00000000 57.628290
2525 78.930095 57.940586 -38.249871 12416 -10885 00000000 57.628290
2526 78.961421 57.940586 -37.124494 12416 -10885 00000000 57.628290
2527 78.992786 57.940586 -35.997897 12416 -10885 00000000 57.628290
2528 79.024022 57.940586 -34.875197 12416 -10885 00000000 57.628290
2529 79.055221 57.940586 -33.748816 12416 -10885 00000000 57.628290
2530 79.086458 57.940586 -32.625120 12416 -10885 00000000 57.628290
2531 79.117689 57.940586 -31.500438 12416 -10885 00000000 57.628290
2532 79.148923 57.940586 -30.373129 12416 -10885 00000000 57.628290
2533 79.180129 57.940586 -29.249588 12416 -10885 00000000 57.628290
2534 79.211374 57.940586 -28.125094 12416 -10885 00000000 57.628290
2535 79.242616 57.940586 -26.998910 12416 -10885 00000000 57.628290
2536 79.273849 57.940586 -25.874828 12416 -10885 00000000 57.628290
2537 79.305016 57.940586 -24.750403 12416 -10885 00000000 57.628290
2538 79.336321 57.940586 -23.626416 12416 -10885 00000000 57.628290
2539 79.367588 57.940586 -22.500678 12416 -10885 00000000 57.628290
2540 79.398930 57.940586 -21.374846 12416 -10885 00000000 57.628290
2541 79.430144 57.940586 -20.248481 12416 -10885 00000000 57.628290
2542 79.461428 57.940586 -19.125343 12416 -10885 00000000 57.628290
2543 79.492698 57.940586 -18.000043 12416 -10885 00000000 57.628290
2544 79.523937 57.940586 -16.874691 12416 -10885 00000000 57.628290
2545 79.555094 57.940586 -15.749125 12416 -10885 00000000 57.628290
2546 79.586379 57.940586 -14.624725 12416 -10885 00000000 57.628290
2547 79.617588 57.940586 -13.498086 12416 -10885 00000000 57.628290
2548 79.648793 57.940586 -12.374871 12416 -10885 00000000 57.628290
2549 79.680076 57.940586 -11.251339 12416 -10885 00000000 57.628290
2550 79.711332 57.940586 -10.126390 12416 -10885 00000000 57.628290
2551 79.742563 57.940586 -9.001176 12416 -10885 00000000 57.628290
2552 79.773857 57.940586 -7.873026 12416 -10885 00000000 57.628290
2553 79.805063 57.940586 -6.748807 12416 -10885 00000000 57.628290
2554 79.836388 57.940586 -5.626373 12416 -10885 00000000 57.628290
2555 79.867666 57.940586 -4.500378 12416 -10885 00000000 57.628290
2556 79.898903 57.940586 -3.375644 12416 -10885 00000000 57.628290
2557 79.930135 57.940586 -2.250472 12416 -10885 00000000 57.628290
2558 79.961395 57.940586 -1.125463 12416 -10885 00000000 57.628290
2559 79.992653 57.940586 -0.002584 12416 -10885 00000000 57.628290
2560 80.023876 57.940586 1.125738 12416 -10885 00000000 57.628290
2561 80.055052 57.940586 2.249777 12416 -10885 00000000 57.628290
2562 80.086293 57.940586 3.375730 12416 -10885 00000000 57.628290
2563 80.117509 57.940586 4.501777 12416 -10885 00000000 57.628290
2564 80.148735 57.940586 5.625189 12416 -10885 00000000 57.628290
2565 80.180064 57.940586 6.751365 12416 -10885 00000000 57.628290
2566 80.211290 57.940586 7.875283 12416 -10885 00000000 57.628290
2567 80.242677 57.940586 8.999923 12416 -10885 00000000 57.628290
2568 80.273979 57.940586 10.125532 12416 -10885 00000000 57.628290
2569 80.305150 57.940586 11.250875 12416 -10885 00000000 57.628290
2570 80.336408 57.940586 12.374717 12416 -10885 00000000 57.628290
2571 80.367609 57.940586 13.501545 12416 -10885 00000000 57.628290
2572 80.398826 57.940586 14.625137 12416 -10885 00000000 57.628290
2573 80.430100 57.940586 15.750446 12416 -10885 00000000 57.628290
2574 80.461353 57.940586 16.875077 12416 -10885 00000000 57.628290
2575 80.492597 57.940586 18.000283 12416 -10885 00000000 57.628290
2576 80.523860 57.940586 19.125120 12416 -10885 00000000 57.628290
2577 80.555097 57.940586 20.249545 12416 -10885 00000000 57.628290
2578 80.586314 57.940586 21.373747 12416 -10885 00000000 57.628290
2579 80.617531 57.940586 22.501030 12416 -10885 00000000 57.628290
2580 80.648997 57.940586 23.625627 12416 -10885 00000000 57.628290
2581 80.680168 57.940586 24.748455 12416 -10885 00000000 57.628290
2582 80.711426 57.940586 25.874434 12416 -10885 00000000 57.628290
2583 80.742648 57.940586 27.000060 12416 -10885 00000000 57.628290
2584 80.773866 57.940586 28.124528 12416 -10885 00000000 57.628290
2585 80.805128 57.940586 29.248884 12416 -10885 00000000 57.628290
2586 80.836405 57.940586 30.376657 12416 -10885 00000000 57.628290
2587 80.867654 57.940586 31.501519 12416 -10885 00000000 57.628290
2588 80.898878 57.940586 32.624082 12416 -10885 00000000 57.628290
2589 80.930101 57.940586 33.748901 12416 -10885 00000000 57.628290
2590 80.961302 57.940586 34.876545 12416 -10885 00000000 57.628290
2591 80.992775 57.940586 36.001614 12416 -10885 00000000 57.628290
2592 81.023980 57.940586 37.124665 12416 -10885 00000000 57.628290
2593 81.055249 57.940586 38.248592 12416 -10885 00000000 57.628290
2594 81.086483 57.940586 39.376639 12416 -10885 00000000 57.628290
2595 81.117715 57.940586 40.501639 12416 -10885 00000000 57.628290
2596 81.148962 57.940586 41.625017 12416 -10885 00000000 57.628290
2597 81.180175 57.940586 42.748489 12416 -10885 00000000 57.628290
2598 81.211468 57.940586 43.873713 12416 -10885 00000000 57.628290
2599 81.242605 57.940586 44.997331 12416 -10885 00000000 57.628290
2600 81.273863 57.940586 46.126073 12416 -10885 00000000 57.628290
2601 81.305072 57.940586 47.251184 12416 -10885 00000000 57.628290
2602 81.336375 57.940586 48.375489 12416 -10885 00000000 57.628290
2603 81.367544 57.940586 49.500378 12416 -10885 00000000 57.628290
2604 81.398862 57.940586 50.624056 12416 -10885 00000000 57.628290
2605 81.430135 57.940586 51.751708 12416 -10885 00000000 57.628290
2606 81.461434 57.940586 52.874339 12416 -10885 00000000 57.628290
2607 81.492754 57.940586 54.001622 12416 -10885 00000000 57.628290
2608 81.523945 57.940586 55.126785 12416 -10885 00000000 57.628290
2609 81.555171 57.940586 56.251657 12416 -10885 00000000 57.628290
2610 81.586491 57.940586 57.376176 12416 -10885 00000000 57.628290
2611 81.617631 57.940586 58.499442 12416 -10885 00000000 57.628290
2612 81.648873 57.940586 59.623524 12416 -10885 00000000 57.628290
2613 81.680151 57.940586 60.750541 12416 -10885 00000000 57.628290
2614 81.711317 57.940586 61.875249 12416 -10885 00000000 57.628290
2615 81.742580 57.940586 63.000644 12416 -10885 00000000 57.390866
2616 81.773813 57.940586 64.124931 12416 -10885 00000000 57.390866
2617 81.805124 57.940586 65.249082 12416 -10885 00000000 57.390866
2618 81.836325 57.940586 66.373996 12416 -10885 00000000 57.390866
2619 81.867719 57.832196 67.502086 12415 -10885 00000000 57.390866
2620 81.898944 57.723806 68.625506 12414 -10885 00000000 57.390866
2621 81.930248 57.507025 69.751184 12413 -10884 00000000 57.390866
2622 81.961431 57.398635 70.875215 12412 -10884 00000000 57.390866
2623 81.992727 57.398635 72.001365 12412 -10884 00000000 57.390866
2624 82.023883 57.398635 73.126682 12412 -10884 00000000 57.390866
2625 82.055157 57.398635 74.249408 12412 -10884 00000000 57.390866
2626 82.086321 57.398635 75.374133 12412 -10884 00000000 57.390866
2627 82.117618 57.398635 76.498764 12412 -10884 00000000 57.390866
2628 82.148843 57.398635 77.625721 12412 -10884 00000000 57.390866
2629 82.180057 57.398635 78.749691 12412 -10884 00000000 57.390866
2630 82.211295 57.398635 79.873704 12412 -10884 00000000 57.390866
2631 82.242559 57.398635 80.999468 12412 -10884 00000000 57.390866
2632 82.273759 57.398635 82.124099 12412 -10884 00000000 57.390866
2633 82.305091 57.398635 83.251047 12412 -10884 00000000 57.390866
2634 82.336378 57.398635 84.375446 12412 -10884 00000000 57.390866
2635 82.367652 57.398635 85.499099 12412 -10884 00000000 57.390866
2636 82.398870 57.398635 86.623592 12412 -10884 00000000 57.390866
2637 82.430088 57.398635 87.751820 12412 -10884 00000000 57.390866
2638 82.461367 57.398635 88.875867 12412 -10884 00000000 57.390866
2639 82.492632 57.398635 90.000266 12412 -10884 00000000 57.390866
2640 82.523789 57.398635 91.126116 12412 -10884 00000000 57.390866
2641 82.555056 57.398635 92.249691 12412 -10884 00000000 57.390866
2642 82.586285 57.398635 93.374622 12412 -10884 00000000 57.390866
2643 82.617516 57.398635 94.501923 12412 -10884 00000000 57.390866
2644 82.648747 57.398635 95.626854 12412 -10884 00000000 57.390866
2645 82.680090 57.398635 96.748455 12412 -10884 00000000 57.390866
2646 82.711279 57.398635 97.875970 12412 -10884 00000000 57.390866
2647 82.742552 57.398635 99.001717 12412 -10884 00000000 57.390866
2648 82.773872 57.398635 100.125326 12412 -10884 00000000 57.390866
2649 82.805167 57.398635 101.252129 12412 -10884 00000000 57.390866
2650 82.836360 57.398635 102.375455 12412 -10884 00000000 57.390866
2651 82.867610 57.398635 103.500026 12412 -10884 00000000 57.390866
2652 82.898836 57.398635 104.625541 12412 -10884 00000000 57.390866
2653 82.930061 57.398635 105.750738 12412 -10884 00000000 57.390866
2654 82.961314 57.398635 106.874322 12412 -10884 00000000 57.390866
2655 82.992554 57.398635 108.001511 12412 -10884 00000000 57.390866
2656 83.023818 57.398635 109.125403 12412 -10884 00000000 57.390866
2657 83.055008 57.398635 110.250069 12412 -10884 00000000 57.390866
2658 83.086272 57.398635 111.374125 12412 -10884 00000000 57.390866
2659 83.117492 57.398635 112.498704 12412 -10884 00000000 57.390866
2660 83.148786 57.398635 113.626193 12412 -10884 00000000 57.390866
2661 83.180011 57.398635 114.750240 12412 -10884 00000000 57.390866
2662 83.211321 57.398635 115.876322 12412 -10884 00000000 57.390866
2663 83.242668 57.398635 116.997502 12412 -10884 00000000 57.390866
2664 83.273858 57.398635 118.124622 12412 -10884 00000000 57.390866
2665 83.305141 57.398635 119.249760 12412 -10884 00000000 57.390866
2666 83.336352 57.398635 120.374768 12412 -10884 00000000 57.390866
2667 83.367554 57.398635 121.500086 12412 -10884 00000000 57.390866
2668 83.398816 57.398635 122.625026 12412 -10884 00000000 57.390866
2669 83.430088 57.398635 123.748755 12412 -10884 00000000 57.390866
2670 83.461299 57.398635 124.876905 12412 -10884 00000000 57.390866
2671 83.492493 57.398635 125.999562 12412 -10884 00000000 57.390866
2672 83.523716 57.398635 127.126768 12412 -10884 00000000 57.390866
2673 83.554964 57.398635 128.251905 12412 -10884 00000000 57.390866
2674 83.586312 57.398635 129.374991 12412 -10884 00000000 57.390866
2675 83.617560 57.398635 130.499974 12412 -10884 00000000 57.390866
2676 83.648922 57.398635 131.627180 12412 -10884 00000000 57.390866
2677 83.680174 57.398635 132.749545 12412 -10884 00000000 57.390866
2678 83.711418 57.398635 133.873798 12412 -10884 00000000 57.390866
2679 83.742664 57.398635 134.999262 12412 -10884 00000000 57.390866
2680 83.773896 57.398635 136.126356 12412 -10884 00000000 57.390866
2681 83.805121 57.398635 137.251451 12412 -10884 00000000 57.390866
2682 83.836320 57.398635 138.376107 12412 -10884 00000000 57.390866
2683 83.867558 57.398635 139.500300 12412 -10884 00000000 57.390866
2684 83.898803 57.398635 140.624039 12412 -10884 00000000 57.390866
2685 83.930051 57.398635 141.748421 12412 -10884 00000000 57.390866
2686 83.961322 57.398635 142.876682 12412 -10884 00000000 57.390866
2687 83.992495 57.398635 144.001167 12412 -10884 00000000 57.390866
2688 84.023759 57.398635 145.124846 12412 -10884 00000000 57.390866
2689 84.055146 57.398635 146.250103 12412 -10884 00000000 57.390866
2690 84.086403 57.398635 147.375455 12412 -10884 00000000 57.390866
2691 84.117675 57.398635 148.500154 12412 -10884 00000000 57.390866
2692 84.148888 57.398635 149.623386 12412 -10884 00000000 57.390866
2693 84.180105 57.398635 150.750815 12412 -10884 00000000 57.390866
2694 84.211374 57.398635 151.875360 12412 -10884 00000000 57.390866
2695 84.242583 57.398635 153.000987 12412 -10884 00000000 57.390866
2696 84.273803 57.398635 154.125463 12412 -10884 00000000 57.390866
2697 84.305046 57.398635 155.249734 12412 -10884 00000000 57.390866
2698 84.336267 57.398635 156.374313 12412 -10884 00000000 57.390866
2699 84.367577 57.398635 157.498901 12412 -10884 00000000 57.390866
2700 84.398684 57.398635 158.626390 12412 -10884 00000000 57.390866
2701 84.430043 57.398635 159.748549 12412 -10884 00000000 57.390866
2702 84.461174 57.398635 160.874047 12412 -10884 00000000 57.390866
2703 84.492678 57.398635 161.998635 12412 -10884 00000000 57.390866
2704 84.523958 57.398635 163.126210 12412 -10884 00000000 57.390866
2705 84.555119 57.398635 164.251708 12412 -10884 00000000 57.390866
2706 84.586389 57.398635 165.374339 12412 -10884 00000000 57.390866
2707 84.617583 57.398635 166.499339 12412 -10884 00000000 57.390866
2708 84.648831 57.398635 167.627206 12412 -10884 00000000 57.390866
2709 84.680130 57.398635 168.750275 12412 -10884 00000000 57.390866
2710 84.711334 57.398635 169.874296 12412 -10884 00000000 57.390866
2711 84.742529 57.398635 171.000429 12412 -10884 00000000 57.390866
2712 84.773779 57.398635 172.123919 12412 -10884 00000000 57.390866
2713 84.805040 57.398635 173.249356 12412 -10884 00000000 57.390866
2714 84.836316 57.398635 174.375781 12412 -10884 00000000 57.390866
2715 84.867683 57.398635 175.500446 12412 -10884 00000000 57.390866
2716 84.898953 57.398635 176.624640 12412 -10884 00000000 57.390866
2717 84.930129 57.398635 177.749202 12412 -10884 00000000 57.390866
2718 84.961438 57.398635 178.874056 12412 -10884 00000000 57.390866
2719 84.992676 57.398635 179.999305 12412 -10884 00000000 57.390866
2720 85.023950 57.398635 181.123713 12412 -10884 00000000 57.390866
2721 85.055159 57.398635 182.251699 12412 -10884 00000000 57.390866
2722 85.086346 57.398635 183.376390 12412 -10884 00000000 57.390866
2723 85.117594 57.398635 184.501090 12412 -10884 00000000 57.390866
2724 85.148855 57.398635 185.624511 12412 -10884 00000000 57.390866
2725 85.180057 57.398635 186.752111 12412 -10884 00000000 57.390866
2726 85.211278 57.398635 187.876562 12412 -10884 00000000 57.390866
2727 85.242553 57.398635 189.001845 12412 -10884 00000000 57.390866
2728 85.273870 57.398635 190.126039 12412 -10884 00000000 57.390866
2729 85.305147 57.398635 191.249245 12412 -10884 00000000 57.390866
2730 85.336412 57.398635 192.375300 12412 -10884 00000000 57.390866
2731 85.367666 57.398635 193.500833 12412 -10884 00000000 57.390866
2732 85.398889 57.398635 194.624185 12412 -10884 00000000 57.390866
2733 85.430074 57.398635 195.748369 12412 -10884 00000000 57.390866
2734 85.461320 57.398635 196.876820 12412 -10884 00000000 57.390866
2735 85.492630 57.398635 198.001365 12412 -10884 00000000 57.390866
2736 85.523808 57.398635 199.126476 12412 -10884 00000000 57.390866
2737 85.555087 57.398635 200.251107 12412 -10884 00000000 57.390866
2738 85.586270 57.398635 201.374785 12412 -10884 00000000 57.390866
2739 85.617502 57.398635 202.499030 12412 -10884 00000000 57.390866
2740 85.648755 57.398635 203.626991 12412 -10884 00000000 57.390866
2741 85.680024 57.398635 204.750755 12412 -10884 00000000 57.390866
2742 85.711278 57.398635 205.873386 12412 -10884 00000000 57.390866
2743 85.742675 57.398635 206.999210 12412 -10884 00000000 57.390866
2744 85.773893 57.398635 208.125944 12412 -10884 00000000 57.390866
2745 85.805147 57.398635 209.250086 12412 -10884 00000000 57.390866
2746 85.836376 57.398635 210.374468 12412 -10884 00000000 57.390866
2747 85.867686 57.398635 211.499485 12412 -10884 00000000 57.390866
2748 85.898870 57.398635 212.626047 12412 -10884 00000000 57.390866
2749 85.930127 57.398635 213.750189 12412 -10884 00000000 57.390866
2750 85.961310 57.398635 214.874219 12412 -10884 00000000 57.390866
2751 85.992624 57.398635 215.999133 12412 -10884 00000000 57.390866
2752 86.023788 57.398635 217.124725 12412 -10884 00000000 57.390866
2753 86.055051 57.398635 218.249185 12412 -10884 00000000 57.390866
2754 86.086231 57.398635 219.376699 12412 -10884 00000000 57.390866
2755 86.117472 57.398635 220.501433 12412 -10884 00000000 57.390866
2756 86.148749 57.398635 221.623532 12412 -10884 00000000 57.390866
2757 86.180083 57.398635 222.748652 12412 -10884 00000000 57.390866
2758 86.211402 57.398635 223.876081 12412 -10884 00000000 57.390866
2759 86.242588 57.398635 224.998730 12412 -10884 00000000 57.390866
2760 86.273801 57.398635 226.125412 12412 -10884 00000000 57.390866
2761 86.305110 57.398635 227.248361 12412 -10884 00000000 57.390866
2762 86.336329 57.398635 228.376184 12412 -10884 00000000 57.390866
2763 86.367595 57.398635 229.499622 12412 -10884 00000000 57.390866
2764 86.398779 57.398635 230.624760 12412 -10884 00000000 57.390866
2765 86.430025 57.398635 231.751699 12412 -10884 00000000 57.390866
2766 86.461283 57.398635 232.875446 12412 -10884 00000000 57.390866
2767 86.492527 57.398635 234.001356 12412 -10884 00000000 57.390866
2768 86.523795 57.398635 235.125661 12412 -10884 00000000 57.390866
2769 86.555023 57.398635 236.250944 12412 -10884 00000000 57.390866
2770 86.586204 57.398635 237.374571 12412 -10884 00000000 57.390866
2771 86.617673 57.398635 238.502060 12412 -10884 00000000 57.390866
2772 86.648816 57.398635 239.625712 12412 -10884 00000000 57.390866
2773 86.680122 57.398635 240.751099 12412 -10884 00000000 57.390866
2774 86.711372 57.398635 241.874794 12412 -10884 00000000 57.390866
2775 86.742566 57.398635 242.997253 12412 -10884 00000000 57.390866
2776 86.773850 57.398635 244.125215 12412 -10884 00000000 57.390866
2777 86.805044 57.398635 245.249588 12412 -10884 00000000 57.390866
2778 86.836251 57.398635 246.374468 12412 -10884 00000000 57.390866
2779 86.867515 57.398635 247.498670 12412 -10884 00000000 57.390866
2780 86.898815 57.398635 248.625069 12412 -10884 00000000 57.390866
2781 86.930075 57.398635 249.748455 12412 -10884 00000000 57.390866
2782 86.961290 57.398635 250.873893 12412 -10884 00000000 57.390866
2783 86.992462 57.398635 251.999202 12412 -10884 00000000 57.390866
2784 87.023903 57.398635 253.126124 12412 -10884 00000000 57.390866
2785 87.055086 57.398635 254.251167 12412 -10884 00000000 57.390866
2786 87.086379 57.398635 255.373781 12412 -10884 00000000 57.390866
2787 87.117608 57.398635 256.502163 12412 -10884 00000000 57.390866
2788 87.148797 57.398635 257.626081 12412 -10884 00000000 57.390866
2789 87.180057 57.398635 258.750927 12412 -10884 00000000 57.390866
2790 87.211314 57.398635 259.874047 12412 -10884 00000000 57.390866
2791 87.242571 57.398635 260.998798 12412 -10884 00000000 57.390866
2792 87.273805 57.398635 262.124253 12412 -10884 00000000 57.390866
2793 87.304983 57.398635 263.248721 12412 -10884 00000000 57.390866
2794 87.336242 57.398635 264.376760 12412 -10884 00000000 57.390866
2795 87.367469 57.398635 265.501159 12412 -10884 00000000 57.390866
2796 87.398705 57.398635 266.626657 12412 -10884 00000000 57.390866
2797 87.430135 57.398635 267.751708 12412 -10884 00000000 57.390866
2798 87.461390 57.398635 268.875635 12412 -10884 00000000 57.390866
2799 87.492673 57.398635 269.997614 12412 -10884 00000000 57.390866
2800 87.523825 57.398635 271.124468 12412 -10884 00000000 57.390866
2801 87.555063 57.398635 272.251854 12412 -10884 00000000 57.390866
2802 87.586285 57.398635 273.375472 12412 -10884 00000000 57.390866
2803 87.617589 57.398635 274.501090 12412 -10884 00000000 57.390866
2804 87.648775 57.398635 275.624700 12412 -10884 00000000 57.390866
2805 87.680011 57.398635 276.751983 12412 -10884 00000000 57.390866
2806 87.711300 57.398635 277.876236 12412 -10884 00000000 57.390866
2807 87.742543 57.398635 278.997313 12412 -10884 00000000 57.390866
2808 87.773890 57.398635 280.126047 12412 -10884 00000000 57.390866
2809 87.805147 57.398635 281.252077 12412 -10884 00000000 57.390866
2810 87.836494 57.398635 282.376442 12412 -10884 00000000 57.390866
2811 87.867659 57.398635 283.500506 12412 -10884 00000000 57.390866
2812 87.898864 57.398635 284.624382 12412 -10884 00000000 57.390866
2813 87.930139 57.398635 285.748635 12412 -10884 00000000 57.390866
2814 87.961373 57.398635 286.876614 12412 -10884 00000000 57.390866
2815 87.992546 57.398635 288.002103 12412 -10884 00000000 57.390866
2816 88.023828 57.398635 289.123549 12412 -10884 00000000 57.390866
2817 88.055115 57.398635 290.250875 12412 -10884 00000000 57.390866
2818 88.086328 57.398635 291.374648 12412 -10884 00000000 57.390866
2819 88.117553 57.398635 292.499537 12412 -10884 00000000 57.390866
2820 88.148739 57.398635 293.623695 12412 -10884 00000000 57.390866
2821 88.179978 57.398635 294.750609 12412 -10884 00000000 57.390866
2822 88.211244 57.398635 295.874468 12412 -10884 00000000 57.390866
2823 88.242650 57.398635 296.998584 12412 -10884 00000000 57.390866
2824 88.273932 57.398635 298.124039 12412 -10884 00000000 57.390866
2825 88.305156 57.398635 299.250309 12412 -10884 00000000 57.390866
2826 88.336429 57.398635 300.374476 12412 -10884 00000000 57.390866
2827 88.367621 57.398635 301.499399 12412 -10884 00000000 57.390866
2828 88.398839 57.398635 -57.375884 12412 -10884 00000000 57.390866
2829 88.430116 57.398635 -56.249296 12412 -10884 00000000 57.390866
2830 88.461368 57.398635 -55.125240 12412 -10884 00000000 57.390866
2831 88.492556 57.398635 -53.999193 12412 -10884 00000000 57.390866
2832 88.523800 57.398635 -52.875506 12412 -10884 00000000 57.390866
2833 88.555002 57.398635 -51.751356 12412 -10884 00000000 57.390866
2834 88.586249 57.398635 -50.623232 12412 -10884 00000000 57.390866
2835 88.617547 57.398635 -49.498301 12412 -10884 00000000 57.390866
2836 88.648817 57.398635 -48.376287 12412 -10884 00000000 57.390866
2837 88.680161 57.398635 -47.248961 12412 -10884 00000000 57.390866
2838 88.711422 57.398635 -46.123249 12412 -10884 00000000 57.390866
2839 88.742585 57.398635 -44.998507 12412 -10884 00000000 57.390866
2840 88.773893 57.398635 -43.875481 12412 -10884 00000000 57.390866
2841 88.805113 57.398635 -42.750875 12412 -10884 00000000 57.390866
2842 88.836317 57.398635 -41.623120 12412 -10884 00000000 57.390866
2843 88.867594 57.398635 -40.498961 12412 -10884 00000000 57.390866
2844 88.898820 57.398635 -39.374399 12412 -10884 00000000 57.390866
2845 88.930083 57.398635 -38.251004 12412 -10884 00000000 57.390866
2846 88.961297 57.398635 -37.122914 12412 -10884 00000000 57.390866
2847 88.992513 57.398635 -36.002850 12412 -10884 00000000 57.390866
2848 89.023787 57.398635 -34.872854 12412 -10884 00000000 57.390866
2849 89.054976 57.398635 -33.748438 12412 -10884 00000000 57.390866
2850 89.086204 57.398635 -32.624597 12412 -10884 00000000 57.390866
2851 89.117573 57.398635 -31.500755 12412 -10884 00000000 57.390866
2852 89.148895 57.398635 -30.373532 12412 -10884 00000000 57.390866
2853 89.180094 57.398635 -29.249966 12412 -10884 00000000 57.390866
2854 89.211280 57.398635 -28.124597 12412 -10884 00000000 57.390866
2855 89.242521 57.398635 -27.002395 12412 -10884 00000000 57.390866
2856 89.273834 57.398635 -25.875326 12412 -10884 00000000 57.390866
2857 89.305069 57.398635 -24.750961 12412 -10884 00000000 57.390866
2858 89.336205 57.398635 -23.625721 12412 -10884 00000000 57.390866
2859 89.367519 57.398635 -22.499365 12412 -10884 00000000 57.390866
2860 89.398724 57.398635 -21.374253 12412 -10884 00000000 57.390866
2861 89.430017 57.398635 -20.250017 12412 -10884 00000000 57.390866
2862 89.461257 57.398635 -19.124631 12412 -10884 00000000 57.390866
2863 89.492489 57.398635 -17.999803 12412 -10884 00000000 57.390866
2864 89.523791 57.398635 -16.874554 12412 -10884 00000000 57.390866
2865 89.555064 57.398635 -15.751296 12412 -10884 00000000 57.390866
2866 89.586318 57.398635 -14.623850 12412 -10884 00000000 57.390866
2867 89.617593 57.398635 -13.500996 12412 -10884 00000000 57.390866
2868 89.648862 57.398635 -12.373584 12412 -10884 00000000 57.390866
2869 89.680090 57.398635 -11.251416 12412 -10884 00000000 57.390866
2870 89.711289 57.398635 -10.125498 12412 -10884 00000000 57.390866
2871 89.742469 57.398635 -8.999013 12412 -10884 00000000 57.390866
2872 89.773758 57.398635 -7.874708 12412 -10884 00000000 57.390866
2873 89.805023 57.398635 -6.751133 12412 -10884 00000000 57.390866
2874 89.836249 57.398635 -5.625996 12412 -10884 00000000 57.390866
2875 89.867492 57.398635 -4.498627 12412 -10884 00000000 57.390866
2876 89.898762 57.398635 -3.374125 12412 -10884 00000000 57.390866
2877 89.929953 57.398635 -2.251476 12412 -10884 00000000 57.390866
2878 89.961168 57.398635 -1.122957 12412 -10884 00000000 57.390866
2879 89.992616 57.398635 0.000635 12412 -10884 00000000 57.390866
